time/ms;Fluo/V;P700 deltaI/I x10³;
-199.8000;0.6390;1.1689;
-199.5000;0.6382;1.1615;
-199.2000;0.6365;1.1566;
-198.9000;0.6390;1.1541;
-198.6000;0.6398;1.1516;
-198.3000;0.6496;1.1713;
-198.0000;0.6390;1.1467;
-197.7000;0.6488;1.1836;
-197.4000;0.6463;1.1812;
-197.1000;0.6398;1.1664;
-196.8000;0.6398;1.1640;
-196.5000;0.6325;1.1467;
-196.2000;0.6398;1.1640;
-195.9000;0.6422;1.1640;
-195.6000;0.6414;1.1664;
-195.3000;0.6431;1.1763;
-195.0000;0.6496;1.1910;
-194.7000;0.6422;1.1689;
-194.4000;0.6439;1.1640;
-194.1000;0.6512;1.1886;
-193.8000;0.6439;1.1713;
-193.5000;0.6439;1.1836;
-193.2000;0.6471;1.1836;
-192.9000;0.6414;1.1689;
-192.6000;0.6439;1.1713;
-192.3000;0.6455;1.1713;
-192.0000;0.6463;1.1738;
-191.7000;0.6422;1.1689;
-191.4000;0.6447;1.1689;
-191.1000;0.6455;1.1713;
-190.8000;0.6471;1.1713;
-190.5000;0.6447;1.1566;
-190.2000;0.6447;1.1492;
-189.9000;0.6455;1.1516;
-189.6000;0.6463;1.1541;
-189.3000;0.6455;1.1492;
-189.0000;0.6422;1.1393;
-188.7000;0.6455;1.1566;
-188.4000;0.6463;1.1590;
-188.1000;0.6447;1.1541;
-187.8000;0.6447;1.1615;
-187.5000;0.6455;1.1738;
-187.2000;0.6447;1.1664;
-186.9000;0.6455;1.1713;
-186.6000;0.6471;1.1763;
-186.3000;0.6504;1.1713;
-186.0000;0.6528;1.1763;
-185.7000;0.6463;1.1640;
-185.4000;0.6488;1.1590;
-185.1000;0.6471;1.1541;
-184.8000;0.6496;1.1664;
-184.5000;0.6488;1.1664;
-184.2000;0.6471;1.1615;
-183.9000;0.6479;1.1640;
-183.6000;0.6496;1.1713;
-183.3000;0.6512;1.1738;
-183.0000;0.6536;1.1861;
-182.7000;0.6479;1.1738;
-182.4000;0.6496;1.1689;
-182.1000;0.6504;1.1738;
-181.8000;0.6504;1.1664;
-181.5000;0.6504;1.1615;
-181.2000;0.6496;1.1664;
-180.9000;0.6512;1.1664;
-180.6000;0.6512;1.1516;
-180.3000;0.6504;1.1541;
-180.0000;0.6496;1.1590;
-179.7000;0.6528;1.1664;
-179.4000;0.6528;1.1713;
-179.1000;0.6536;1.1812;
-178.8000;0.6520;1.1689;
-178.5000;0.6536;1.1738;
-178.2000;0.6504;1.1615;
-177.9000;0.6536;1.1664;
-177.6000;0.6496;1.1664;
-177.3000;0.6528;1.1763;
-177.0000;0.6536;1.1738;
-176.7000;0.6536;1.1713;
-176.4000;0.6431;1.1541;
-176.1000;0.6520;1.1738;
-175.8000;0.6545;1.1812;
-175.5000;0.6536;1.1812;
-175.2000;0.6528;1.1763;
-174.9000;0.6536;1.1689;
-174.6000;0.6528;1.1664;
-174.3000;0.6504;1.1640;
-174.0000;0.6520;1.1664;
-173.7000;0.6528;1.1689;
-173.4000;0.6545;1.1787;
-173.1000;0.6536;1.1738;
-172.8000;0.6577;1.1689;
-172.5000;0.6520;1.1615;
-172.2000;0.6545;1.1664;
-171.9000;0.6545;1.1615;
-171.6000;0.6561;1.1713;
-171.3000;0.6545;1.1640;
-171.0000;0.6561;1.1615;
-170.7000;0.6553;1.1640;
-170.4000;0.6569;1.1713;
-170.1000;0.6536;1.1590;
-169.8000;0.6561;1.1713;
-169.5000;0.6553;1.1713;
-169.2000;0.6561;1.1738;
-168.9000;0.6561;1.1713;
-168.6000;0.6561;1.1738;
-168.3000;0.6553;1.1836;
-168.0000;0.6593;1.1910;
-167.7000;0.6569;1.1713;
-167.4000;0.6553;1.1787;
-167.1000;0.6528;1.1640;
-166.8000;0.6553;1.1738;
-166.5000;0.6561;1.1689;
-166.2000;0.6561;1.1590;
-165.9000;0.6536;1.1590;
-165.6000;0.6553;1.1615;
-165.3000;0.6569;1.1713;
-165.0000;0.6561;1.1713;
-164.7000;0.6585;1.1738;
-164.4000;0.6593;1.1836;
-164.1000;0.6577;1.1787;
-163.8000;0.6553;1.1713;
-163.5000;0.6577;1.1689;
-163.2000;0.6585;1.1763;
-162.9000;0.6610;1.1836;
-162.6000;0.6659;1.1959;
-162.3000;0.6577;1.1738;
-162.0000;0.6593;1.1787;
-161.7000;0.6593;1.1738;
-161.4000;0.6593;1.1738;
-161.1000;0.6569;1.1664;
-160.8000;0.6602;1.1640;
-160.5000;0.6650;1.1812;
-160.2000;0.6585;1.1590;
-159.9000;0.6561;1.1467;
-159.6000;0.6585;1.1541;
-159.3000;0.6585;1.1590;
-159.0000;0.6585;1.1615;
-158.7000;0.6610;1.1664;
-158.4000;0.6602;1.1640;
-158.1000;0.6602;1.1640;
-157.8000;0.6602;1.1541;
-157.5000;0.6610;1.1590;
-157.2000;0.6585;1.1516;
-156.9000;0.6593;1.1590;
-156.6000;0.6642;1.1738;
-156.3000;0.6585;1.1566;
-156.0000;0.6618;1.1713;
-155.7000;0.6602;1.1763;
-155.4000;0.6610;1.1738;
-155.1000;0.6618;1.1812;
-154.8000;0.6593;1.1664;
-154.5000;0.6610;1.1689;
-154.2000;0.6610;1.1664;
-153.9000;0.6585;1.1590;
-153.6000;0.6675;1.1738;
-153.3000;0.6585;1.1590;
-153.0000;0.6593;1.1640;
-152.7000;0.6634;1.1640;
-152.4000;0.6585;1.1590;
-152.1000;0.6602;1.1615;
-151.8000;0.6593;1.1615;
-151.5000;0.6626;1.1640;
-151.2000;0.6593;1.1590;
-150.9000;0.6610;1.1541;
-150.6000;0.6618;1.1590;
-150.3000;0.6618;1.1664;
-150.0000;0.6618;1.1812;
-149.7000;0.6634;1.1861;
-149.4000;0.6634;1.1861;
-149.1000;0.6618;1.1836;
-148.8000;0.6634;1.1836;
-148.5000;0.6618;1.1886;
-148.2000;0.6650;1.1984;
-147.9000;0.6618;1.1886;
-147.6000;0.6593;1.1910;
-147.3000;0.6642;1.1984;
-147.0000;0.6642;1.1910;
-146.7000;0.6618;1.1787;
-146.4000;0.6650;1.1763;
-146.1000;0.6642;1.1738;
-145.8000;0.6634;1.1763;
-145.5000;0.6659;1.1812;
-145.2000;0.6642;1.1812;
-144.9000;0.6650;1.1738;
-144.6000;0.6642;1.1590;
-144.3000;0.6610;1.1492;
-144.0000;0.6650;1.1566;
-143.7000;0.6650;1.1516;
-143.4000;0.6659;1.1541;
-143.1000;0.6659;1.1590;
-142.8000;0.6659;1.1492;
-142.5000;0.6675;1.1492;
-142.2000;0.6675;1.1516;
-141.9000;0.6691;1.1541;
-141.6000;0.6667;1.1443;
-141.3000;0.6634;1.1516;
-141.0000;0.6707;1.1664;
-140.7000;0.6659;1.1566;
-140.4000;0.6634;1.1492;
-140.1000;0.6642;1.1492;
-139.8000;0.6650;1.1516;
-139.5000;0.6650;1.1492;
-139.2000;0.6667;1.1541;
-138.9000;0.6675;1.1615;
-138.6000;0.6667;1.1590;
-138.3000;0.6667;1.1615;
-138.0000;0.6667;1.1664;
-137.7000;0.6667;1.1787;
-137.4000;0.6667;1.1713;
-137.1000;0.6675;1.1787;
-136.8000;0.6683;1.1812;
-136.5000;0.6667;1.1812;
-136.2000;0.6675;1.1836;
-135.9000;0.6691;1.1861;
-135.6000;0.6683;1.1763;
-135.3000;0.6683;1.1689;
-135.0000;0.6683;1.1689;
-134.7000;0.6675;1.1738;
-134.4000;0.6724;1.1812;
-134.1000;0.6667;1.1713;
-133.8000;0.6667;1.1787;
-133.5000;0.6691;1.1836;
-133.2000;0.6699;1.1812;
-132.9000;0.6667;1.1689;
-132.6000;0.6675;1.1713;
-132.3000;0.6691;1.1713;
-132.0000;0.6659;1.1763;
-131.7000;0.6691;1.1935;
-131.4000;0.6699;1.1959;
-131.1000;0.6675;1.1935;
-130.8000;0.6659;1.1886;
-130.5000;0.6659;1.1812;
-130.2000;0.6618;1.1516;
-129.9000;0.6683;1.1566;
-129.6000;0.6683;1.1664;
-129.3000;0.6699;1.1738;
-129.0000;0.6699;1.1689;
-128.7000;0.6691;1.1640;
-128.4000;0.6667;1.1640;
-128.1000;0.6707;1.1640;
-127.8000;0.6691;1.1615;
-127.5000;0.6707;1.1664;
-127.2000;0.6707;1.1640;
-126.9000;0.6707;1.1615;
-126.6000;0.6699;1.1664;
-126.3000;0.6585;1.1320;
-126.0000;0.6707;1.1664;
-125.7000;0.6699;1.1664;
-125.4000;0.6716;1.1713;
-125.1000;0.6683;1.1664;
-124.8000;0.6732;1.1763;
-124.5000;0.6707;1.1615;
-124.2000;0.6683;1.1516;
-123.9000;0.6699;1.1566;
-123.6000;0.6707;1.1590;
-123.3000;0.6683;1.1467;
-123.0000;0.6716;1.1615;
-122.7000;0.6732;1.1664;
-122.4000;0.6716;1.1689;
-122.1000;0.6699;1.1615;
-121.8000;0.6740;1.1738;
-121.5000;0.6716;1.1664;
-121.2000;0.6716;1.1664;
-120.9000;0.6716;1.1640;
-120.6000;0.6724;1.1566;
-120.3000;0.6732;1.1640;
-120.0000;0.6716;1.1615;
-119.7000;0.6707;1.1615;
-119.4000;0.6724;1.1664;
-119.1000;0.6724;1.1640;
-118.8000;0.6724;1.1664;
-118.5000;0.6724;1.1590;
-118.2000;0.6732;1.1590;
-117.9000;0.6732;1.1443;
-117.6000;0.6740;1.1467;
-117.3000;0.6756;1.1344;
-117.0000;0.6740;1.1270;
-116.7000;0.6732;1.1295;
-116.4000;0.6732;1.1320;
-116.1000;0.6732;1.1369;
-115.8000;0.6748;1.1418;
-115.5000;0.6748;1.1418;
-115.2000;0.6732;1.1369;
-114.9000;0.6732;1.1590;
-114.6000;0.6732;1.1590;
-114.3000;0.6740;1.1590;
-114.0000;0.6732;1.1664;
-113.7000;0.6740;1.1640;
-113.4000;0.6740;1.1689;
-113.1000;0.6748;1.1738;
-112.8000;0.6764;1.1664;
-112.5000;0.6732;1.1566;
-112.2000;0.6756;1.1541;
-111.9000;0.6748;1.1566;
-111.6000;0.6748;1.1541;
-111.3000;0.6748;1.1615;
-111.0000;0.6764;1.1689;
-110.7000;0.6748;1.1640;
-110.4000;0.6740;1.1590;
-110.1000;0.6748;1.1492;
-109.8000;0.6756;1.1541;
-109.5000;0.6764;1.1566;
-109.2000;0.6756;1.1516;
-108.9000;0.6756;1.1492;
-108.6000;0.6740;1.1418;
-108.3000;0.6756;1.1541;
-108.0000;0.6740;1.1590;
-107.7000;0.6781;1.1689;
-107.4000;0.6756;1.1566;
-107.1000;0.6813;1.1738;
-106.8000;0.6748;1.1615;
-106.5000;0.6813;1.1590;
-106.2000;0.6797;1.1467;
-105.9000;0.6772;1.1516;
-105.6000;0.6781;1.1467;
-105.3000;0.6789;1.1541;
-105.0000;0.6789;1.1467;
-104.7000;0.6756;1.1443;
-104.4000;0.6781;1.1418;
-104.1000;0.6772;1.1393;
-103.8000;0.6781;1.1443;
-103.5000;0.6772;1.1492;
-103.2000;0.6781;1.1541;
-102.9000;0.6772;1.1443;
-102.6000;0.6789;1.1418;
-102.3000;0.6732;1.1246;
-102.0000;0.6772;1.1369;
-101.7000;0.6781;1.1393;
-101.4000;0.6781;1.1393;
-101.1000;0.6789;1.1393;
-100.8000;0.6797;1.1393;
-100.5000;0.6781;1.1295;
-100.2000;0.6789;1.1320;
-99.9000;0.6797;1.1369;
-99.6000;0.6789;1.1393;
-99.3000;0.6789;1.1320;
-99.0000;0.6797;1.1295;
-98.7000;0.6797;1.1344;
-98.4000;0.6797;1.1369;
-98.1000;0.6805;1.1393;
-97.8000;0.6797;1.1320;
-97.5000;0.6805;1.1418;
-97.2000;0.6813;1.1492;
-96.9000;0.6797;1.1418;
-96.6000;0.6805;1.1418;
-96.3000;0.6813;1.1443;
-96.0000;0.6813;1.1566;
-95.7000;0.6813;1.1566;
-95.4000;0.6813;1.1516;
-95.1000;0.6813;1.1590;
-94.8000;0.6805;1.1566;
-94.5000;0.6821;1.1566;
-94.2000;0.6805;1.1467;
-93.9000;0.6821;1.1492;
-93.6000;0.6829;1.1393;
-93.3000;0.6829;1.1418;
-93.0000;0.6813;1.1369;
-92.7000;0.6821;1.1393;
-92.4000;0.6829;1.1369;
-92.1000;0.6838;1.1418;
-91.8000;0.6813;1.1393;
-91.5000;0.6838;1.1467;
-91.2000;0.6838;1.1467;
-90.9000;0.6829;1.1467;
-90.6000;0.6829;1.1492;
-90.3000;0.6846;1.1516;
-90.0000;0.6846;1.1590;
-89.7000;0.6854;1.1566;
-89.4000;0.6870;1.1590;
-89.1000;0.6772;1.1295;
-88.8000;0.6838;1.1443;
-88.5000;0.6878;1.1516;
-88.2000;0.6862;1.1443;
-87.9000;0.6854;1.1467;
-87.6000;0.6862;1.1369;
-87.3000;0.6870;1.1344;
-87.0000;0.6854;1.1246;
-86.7000;0.6862;1.1197;
-86.4000;0.6870;1.1246;
-86.1000;0.6789;1.1024;
-85.8000;0.6895;1.1369;
-85.5000;0.6895;1.1467;
-85.2000;0.6862;1.1443;
-84.9000;0.6854;1.1418;
-84.6000;0.6829;1.1369;
-84.3000;0.6960;1.1664;
-84.0000;0.6862;1.1344;
-83.7000;0.6886;1.1320;
-83.4000;0.6870;1.1221;
-83.1000;0.6878;1.1270;
-82.8000;0.6911;1.1295;
-82.5000;0.6870;1.1197;
-82.2000;0.6927;1.1393;
-81.9000;0.6895;1.1246;
-81.6000;0.6870;1.1147;
-81.3000;0.6878;1.1123;
-81.0000;0.6895;1.1172;
-80.7000;0.6919;1.1270;
-80.4000;0.6960;1.1344;
-80.1000;0.6911;1.1246;
-79.8000;0.6903;1.1147;
-79.5000;0.6903;1.1197;
-79.2000;0.6911;1.1172;
-78.9000;0.6919;1.1246;
-78.6000;0.6886;1.1123;
-78.3000;0.6952;1.1172;
-78.0000;0.6895;1.1098;
-77.7000;0.6927;1.1172;
-77.4000;0.6919;1.1197;
-77.1000;0.6886;1.1147;
-76.8000;0.6919;1.1221;
-76.5000;0.6911;1.1172;
-76.2000;0.6903;1.1172;
-75.9000;0.6927;1.1221;
-75.6000;0.6935;1.1246;
-75.3000;0.6927;1.1221;
-75.0000;0.6911;1.1221;
-74.7000;0.6927;1.1246;
-74.4000;0.6919;1.1172;
-74.1000;0.6943;1.1172;
-73.8000;0.6919;1.1049;
-73.5000;0.6984;1.1123;
-73.2000;0.6927;1.0951;
-72.9000;0.6927;1.1000;
-72.6000;0.6935;1.1024;
-72.3000;0.6846;1.0778;
-72.0000;0.6935;1.1074;
-71.7000;0.6952;1.1098;
-71.4000;0.6935;1.1049;
-71.1000;0.6952;1.1000;
-70.8000;0.6935;1.0975;
-70.5000;0.6943;1.1000;
-70.2000;0.6952;1.1049;
-69.9000;0.6968;1.1098;
-69.6000;0.6960;1.1098;
-69.3000;0.6960;1.1197;
-69.0000;0.6984;1.1221;
-68.7000;0.6960;1.1197;
-68.4000;0.6952;1.1197;
-68.1000;0.6952;1.1123;
-67.8000;0.6968;1.1172;
-67.5000;0.6960;1.1221;
-67.2000;0.6984;1.1270;
-66.9000;0.7009;1.1369;
-66.6000;0.6984;1.1443;
-66.3000;0.6968;1.1443;
-66.0000;0.6992;1.1443;
-65.7000;0.6984;1.1369;
-65.4000;0.6976;1.1369;
-65.1000;0.6976;1.1443;
-64.8000;0.6976;1.1418;
-64.5000;0.6984;1.1418;
-64.2000;0.6992;1.1443;
-63.9000;0.7017;1.1516;
-63.6000;0.7000;1.1467;
-63.3000;0.6976;1.1344;
-63.0000;0.6984;1.1344;
-62.7000;0.6992;1.1320;
-62.4000;0.7017;1.1295;
-62.1000;0.6992;1.1172;
-61.8000;0.6992;1.1098;
-61.5000;0.6952;1.0975;
-61.2000;0.6984;1.1098;
-60.9000;0.6992;1.1197;
-60.6000;0.6992;1.1172;
-60.3000;0.6984;1.1172;
-60.0000;0.7049;1.1393;
-59.7000;0.6992;1.1270;
-59.4000;0.7049;1.1369;
-59.1000;0.7049;1.1246;
-58.8000;0.7017;1.1197;
-58.5000;0.7025;1.1221;
-58.2000;0.6984;1.1147;
-57.9000;0.7017;1.1295;
-57.6000;0.7009;1.1246;
-57.3000;0.7017;1.1270;
-57.0000;0.7033;1.1320;
-56.7000;0.7033;1.1246;
-56.4000;0.7033;1.1270;
-56.1000;0.7049;1.1246;
-55.8000;0.7025;1.1024;
-55.5000;0.7025;1.1024;
-55.2000;0.7033;1.1123;
-54.9000;0.7025;1.1147;
-54.6000;0.7041;1.1172;
-54.3000;0.7033;1.1246;
-54.0000;0.7057;1.1320;
-53.7000;0.7057;1.1246;
-53.4000;0.7033;1.1123;
-53.1000;0.7057;1.1147;
-52.8000;0.7074;1.1197;
-52.5000;0.7066;1.1270;
-52.2000;0.7082;1.1221;
-51.9000;0.7041;1.1147;
-51.6000;0.7057;1.1172;
-51.3000;0.7098;1.1246;
-51.0000;0.7066;1.1147;
-50.7000;0.7066;1.1172;
-50.4000;0.7057;1.1172;
-50.1000;0.7090;1.1246;
-49.8000;0.7090;1.1172;
-49.5000;0.7074;1.1049;
-49.2000;0.7074;1.1024;
-48.9000;0.7098;1.1123;
-48.6000;0.7090;1.1172;
-48.3000;0.7114;1.1221;
-48.0000;0.7090;1.1147;
-47.7000;0.7082;1.1147;
-47.4000;0.7106;1.1197;
-47.1000;0.7098;1.1197;
-46.8000;0.7082;1.1197;
-46.5000;0.7098;1.1246;
-46.2000;0.7106;1.1221;
-45.9000;0.7074;1.1221;
-45.6000;0.7082;1.1270;
-45.3000;0.7114;1.1221;
-45.0000;0.7123;1.1197;
-44.7000;0.7106;1.1147;
-44.4000;0.7106;1.1074;
-44.1000;0.7131;1.1024;
-43.8000;0.7106;1.0951;
-43.5000;0.7131;1.1049;
-43.2000;0.7147;1.1098;
-42.9000;0.7147;1.1123;
-42.6000;0.7106;1.1049;
-42.3000;0.7139;1.1074;
-42.0000;0.7171;1.1221;
-41.7000;0.7131;1.1123;
-41.4000;0.7139;1.1123;
-41.1000;0.7147;1.1147;
-40.8000;0.7139;1.1098;
-40.5000;0.7139;1.1123;
-40.2000;0.7131;1.1049;
-39.9000;0.7163;1.1123;
-39.6000;0.7147;1.1147;
-39.3000;0.7131;1.1098;
-39.0000;0.7147;1.1147;
-38.7000;0.7155;1.1123;
-38.4000;0.7171;1.1172;
-38.1000;0.7171;1.1172;
-37.8000;0.7114;1.1098;
-37.5000;0.7163;1.1123;
-37.2000;0.7171;1.1197;
-36.9000;0.7155;1.1123;
-36.6000;0.7155;1.1147;
-36.3000;0.7228;1.1467;
-36.0000;0.7147;1.1246;
-35.7000;0.7163;1.1098;
-35.4000;0.7114;1.0951;
-35.1000;0.7179;1.1024;
-34.8000;0.7163;1.1098;
-34.5000;0.7179;1.1147;
-34.2000;0.7220;1.1221;
-33.9000;0.7188;1.1197;
-33.6000;0.7171;1.1172;
-33.3000;0.7212;1.1221;
-33.0000;0.7204;1.1172;
-32.7000;0.7196;1.1197;
-32.4000;0.7220;1.1172;
-32.1000;0.7220;1.1147;
-31.8000;0.7228;1.1123;
-31.5000;0.7204;1.1049;
-31.2000;0.7188;1.0951;
-30.9000;0.7220;1.1024;
-30.6000;0.7228;1.0975;
-30.3000;0.7196;1.0901;
-30.0000;0.7236;1.1074;
-29.7000;0.7269;1.1074;
-29.4000;0.7245;1.0926;
-29.1000;0.7253;1.0901;
-28.8000;0.7220;1.0852;
-28.5000;0.7236;1.0926;
-28.2000;0.7220;1.0852;
-27.9000;0.7285;1.1074;
-27.6000;0.7228;1.0975;
-27.3000;0.7236;1.1098;
-27.0000;0.7253;1.1074;
-26.7000;0.7269;1.1074;
-26.4000;0.7253;1.1024;
-26.1000;0.7261;1.1049;
-25.8000;0.7261;1.1024;
-25.5000;0.7261;1.1049;
-25.2000;0.7261;1.1049;
-24.9000;0.7261;1.0975;
-24.6000;0.7269;1.0951;
-24.3000;0.7269;1.1000;
-24.0000;0.7285;1.0951;
-23.7000;0.7277;1.0803;
-23.4000;0.7285;1.0852;
-23.1000;0.7285;1.0852;
-22.8000;0.7293;1.0951;
-22.5000;0.7293;1.1024;
-22.2000;0.7293;1.1049;
-21.9000;0.7293;1.1024;
-21.6000;0.7318;1.1074;
-21.3000;0.7310;1.1098;
-21.0000;0.7302;1.1098;
-20.7000;0.7326;1.1172;
-20.4000;0.7310;1.1172;
-20.1000;0.7350;1.1197;
-19.8000;0.7318;1.1074;
-19.5000;0.7334;1.0975;
-19.2000;0.7310;1.0951;
-18.9000;0.7342;1.0975;
-18.6000;0.7318;1.0852;
-18.3000;0.7302;1.0901;
-18.0000;0.7359;1.1000;
-17.7000;0.7350;1.0901;
-17.4000;0.7342;1.0901;
-17.1000;0.7326;1.0852;
-16.8000;0.7334;1.0827;
-16.5000;0.7277;1.0778;
-16.2000;0.7342;1.0975;
-15.9000;0.7326;1.0827;
-15.6000;0.7375;1.0901;
-15.3000;0.7350;1.0926;
-15.0000;0.7342;1.0926;
-14.7000;0.7350;1.1024;
-14.4000;0.7302;1.0975;
-14.1000;0.7359;1.1123;
-13.8000;0.7350;1.1074;
-13.5000;0.7350;1.1000;
-13.2000;0.7342;1.0975;
-12.9000;0.7375;1.1024;
-12.6000;0.7375;1.1000;
-12.3000;0.7350;1.0877;
-12.0000;0.7375;1.0803;
-11.7000;0.7359;1.0754;
-11.4000;0.7383;1.0778;
-11.1000;0.7375;1.0754;
-10.8000;0.7383;1.0827;
-10.5000;0.7383;1.0778;
-10.2000;0.7473;1.1049;
-9.9000;0.7383;1.0803;
-9.6000;0.7407;1.0852;
-9.3000;0.7383;1.0852;
-9.0000;0.7391;1.0877;
-8.7000;0.7416;1.0951;
-8.4000;0.7416;1.0901;
-8.1000;0.7375;1.0754;
-7.8000;0.7424;1.0877;
-7.5000;0.7416;1.0852;
-7.2000;0.7432;1.0827;
-6.9000;0.7432;1.0803;
-6.6000;0.7432;1.0901;
-6.3000;0.7456;1.1024;
-6.0000;0.7456;1.0951;
-5.7000;0.7448;1.0901;
-5.4000;0.7432;1.0951;
-5.1000;0.7464;1.0951;
-4.8000;0.7440;1.0852;
-4.5000;0.7440;1.0901;
-4.2000;0.7432;1.0778;
-3.9000;0.7456;1.0803;
-3.6000;0.7456;1.0778;
-3.3000;0.7456;1.0729;
-3.0000;0.7440;1.0754;
-2.7000;0.7481;1.0754;
-2.4000;0.7440;1.0631;
-2.1000;0.7456;1.0729;
-1.8000;0.7464;1.0729;
-1.5000;0.7481;1.0754;
-1.2000;0.7497;1.0778;
-0.9000;0.7497;1.0754;
-0.6000;0.7481;1.0729;
-0.3000;0.7473;1.0778;
0.0000;0.7473;1.0778;
0.3000;0.7880;1.0926;
0.6000;0.8677;1.1566;
0.9000;0.9296;1.2156;
1.2000;0.9841;1.2673;
1.5000;1.0248;1.3042;
1.8000;1.0549;1.3362;
2.1000;1.0842;1.3633;
2.4000;1.1070;1.3903;
2.7000;1.1298;1.4125;
3.0000;1.1469;1.4322;
3.3000;1.1616;1.4420;
3.6000;1.1795;1.4617;
3.9000;1.1876;1.4666;
4.2000;1.2007;1.4765;
4.5000;1.2104;1.4789;
4.8000;1.2186;1.4765;
5.1000;1.2275;1.4789;
5.4000;1.2340;1.4789;
5.7000;1.2430;1.4863;
6.0000;1.2487;1.4839;
6.3000;1.2568;1.4912;
6.6000;1.2609;1.4888;
6.9000;1.2666;1.4937;
7.2000;1.2698;1.4839;
7.5000;1.2764;1.4888;
7.8000;1.2812;1.4962;
8.1000;1.2821;1.4937;
8.4000;1.2926;1.5134;
8.7000;1.2886;1.4839;
9.0000;1.2943;1.4888;
9.3000;1.3040;1.5011;
9.6000;1.2991;1.4839;
9.9000;1.3040;1.4912;
10.2000;1.3057;1.4912;
10.5000;1.3179;1.5183;
10.8000;1.3114;1.4912;
11.1000;1.3130;1.4937;
11.4000;1.3154;1.4912;
11.7000;1.3162;1.4912;
12.0000;1.3203;1.4986;
12.3000;1.3211;1.4937;
12.6000;1.3236;1.4962;
12.9000;1.3317;1.5035;
13.2000;1.3268;1.5011;
13.5000;1.3301;1.5060;
13.8000;1.3390;1.5183;
14.1000;1.3341;1.4962;
14.4000;1.3317;1.4814;
14.7000;1.3350;1.4839;
15.0000;1.3382;1.4789;
15.3000;1.3407;1.4814;
15.6000;1.3431;1.4863;
15.9000;1.3431;1.4888;
16.2000;1.3447;1.4937;
16.5000;1.3439;1.4839;
16.8000;1.3521;1.4962;
17.1000;1.3455;1.4814;
17.4000;1.3480;1.4814;
17.7000;1.3480;1.4765;
18.0000;1.3480;1.4716;
18.3000;1.3504;1.4691;
18.6000;1.3512;1.4617;
18.9000;1.3512;1.4592;
19.2000;1.3529;1.4592;
19.5000;1.3553;1.4617;
19.8000;1.3545;1.4519;
20.1000;1.3561;1.4494;
20.4000;1.3602;1.4568;
20.7000;1.3578;1.4568;
21.0000;1.3594;1.4617;
21.3000;1.3602;1.4617;
21.6000;1.3602;1.4592;
21.9000;1.3635;1.4666;
22.2000;1.3643;1.4716;
22.5000;1.3643;1.4789;
22.8000;1.3643;1.4789;
23.1000;1.3651;1.4789;
23.4000;1.3659;1.4691;
23.7000;1.3651;1.4716;
24.0000;1.3667;1.4765;
24.3000;1.3659;1.4666;
24.6000;1.3691;1.4666;
24.9000;1.3691;1.4642;
25.2000;1.3708;1.4617;
25.5000;1.3708;1.4666;
25.8000;1.3716;1.4642;
26.1000;1.3708;1.4642;
26.4000;1.3732;1.4716;
26.7000;1.3732;1.4740;
27.0000;1.3732;1.4691;
27.3000;1.3748;1.4691;
27.6000;1.3740;1.4666;
27.9000;1.3748;1.4642;
28.2000;1.3773;1.4814;
28.5000;1.3773;1.4691;
28.8000;1.3740;1.4642;
29.1000;1.3732;1.4642;
29.4000;1.3773;1.4666;
29.7000;1.3773;1.4642;
30.0000;1.3797;1.4642;
30.3000;1.3748;1.4519;
30.6000;1.3773;1.4617;
30.9000;1.3773;1.4642;
31.2000;1.3773;1.4666;
31.5000;1.3797;1.4789;
31.8000;1.3797;1.4716;
32.1000;1.3805;1.4617;
32.4000;1.3805;1.4642;
32.7000;1.3797;1.4617;
33.0000;1.3805;1.4592;
33.3000;1.3830;1.4568;
33.6000;1.3805;1.4469;
33.9000;1.3814;1.4445;
34.2000;1.3822;1.4322;
34.5000;1.3830;1.4322;
34.8000;1.3830;1.4396;
35.1000;1.3830;1.4420;
35.4000;1.3846;1.4469;
35.7000;1.3822;1.4519;
36.0000;1.3936;1.4789;
36.3000;1.3846;1.4519;
36.6000;1.3846;1.4519;
36.9000;1.3846;1.4469;
37.2000;1.3846;1.4494;
37.5000;1.3871;1.4543;
37.8000;1.3895;1.4642;
38.1000;1.3871;1.4494;
38.4000;1.3879;1.4469;
38.7000;1.3879;1.4494;
39.0000;1.3838;1.4420;
39.3000;1.3871;1.4420;
39.6000;1.3862;1.4469;
39.9000;1.3887;1.4543;
40.2000;1.3871;1.4519;
40.5000;1.3911;1.4494;
40.8000;1.3919;1.4445;
41.1000;1.3895;1.4371;
41.4000;1.3895;1.4420;
41.7000;1.3936;1.4592;
42.0000;1.3887;1.4519;
42.3000;1.3903;1.4617;
42.6000;1.3887;1.4642;
42.9000;1.3895;1.4592;
43.2000;1.3936;1.4617;
43.5000;1.3822;1.4322;
43.8000;1.3911;1.4494;
44.1000;1.3903;1.4469;
44.4000;1.3919;1.4469;
44.7000;1.3838;1.4273;
45.0000;1.3887;1.4420;
45.3000;1.3919;1.4519;
45.6000;1.3903;1.4469;
45.9000;1.3976;1.4642;
46.2000;1.3928;1.4445;
46.5000;1.3952;1.4420;
46.8000;1.3952;1.4297;
47.1000;1.3928;1.4199;
47.4000;1.3944;1.4297;
47.7000;1.3928;1.4371;
48.0000;1.3919;1.4396;
48.3000;1.3928;1.4469;
48.6000;1.3952;1.4420;
48.9000;1.3944;1.4371;
49.2000;1.3928;1.4346;
49.5000;1.3936;1.4396;
49.8000;1.3936;1.4346;
50.1000;1.3944;1.4445;
50.4000;1.3976;1.4494;
50.7000;1.3952;1.4396;
51.0000;1.3887;1.4150;
51.3000;1.3936;1.4223;
51.6000;1.3960;1.4174;
51.9000;1.3952;1.4248;
52.2000;1.3960;1.4199;
52.5000;1.3936;1.4248;
52.8000;1.3976;1.4445;
53.1000;1.4001;1.4568;
53.4000;1.3985;1.4396;
53.7000;1.3960;1.4371;
54.0000;1.3968;1.4322;
54.3000;1.3976;1.4248;
54.6000;1.3960;1.4223;
54.9000;1.3976;1.4346;
55.2000;1.3993;1.4469;
55.5000;1.3976;1.4494;
55.8000;1.3985;1.4469;
56.1000;1.3993;1.4519;
56.4000;1.3985;1.4519;
56.7000;1.3993;1.4469;
57.0000;1.3952;1.4371;
57.3000;1.4017;1.4568;
57.6000;1.3985;1.4494;
57.9000;1.3993;1.4642;
58.2000;1.3976;1.4494;
58.5000;1.3968;1.4469;
58.8000;1.3944;1.4322;
59.1000;1.3993;1.4346;
59.4000;1.3985;1.4297;
59.7000;1.3976;1.4174;
60.0000;1.3968;1.4125;
60.3000;1.4042;1.4346;
60.6000;1.4009;1.4199;
60.9000;1.4001;1.4248;
61.2000;1.4009;1.4346;
61.5000;1.3976;1.4297;
61.8000;1.4017;1.4297;
62.1000;1.4033;1.4322;
62.4000;1.3968;1.4150;
62.7000;1.4009;1.4223;
63.0000;1.3985;1.4248;
63.3000;1.4017;1.4297;
63.6000;1.3993;1.4174;
63.9000;1.4050;1.4273;
64.2000;1.4001;1.4076;
64.5000;1.4058;1.4199;
64.8000;1.4001;1.4125;
65.1000;1.4025;1.4199;
65.4000;1.4042;1.4125;
65.7000;1.4074;1.4199;
66.0000;1.4025;1.4100;
66.3000;1.4025;1.4125;
66.6000;1.4033;1.4100;
66.9000;1.4042;1.4100;
67.2000;1.4042;1.4150;
67.5000;1.4017;1.4100;
67.8000;1.4017;1.4051;
68.1000;1.4025;1.4100;
68.4000;1.4033;1.4100;
68.7000;1.4033;1.4076;
69.0000;1.4017;1.4026;
69.3000;1.4050;1.4174;
69.6000;1.4042;1.4150;
69.9000;1.4033;1.4174;
70.2000;1.4042;1.4199;
70.5000;1.4042;1.4125;
70.8000;1.4058;1.4174;
71.1000;1.4042;1.4150;
71.4000;1.4033;1.4174;
71.7000;1.4042;1.4223;
72.0000;1.4066;1.4150;
72.3000;1.4058;1.4199;
72.6000;1.4058;1.4248;
72.9000;1.4050;1.4174;
73.2000;1.4066;1.4199;
73.5000;1.4082;1.4223;
73.8000;1.4066;1.4248;
74.1000;1.4050;1.4199;
74.4000;1.4066;1.4174;
74.7000;1.4074;1.4174;
75.0000;1.4090;1.4125;
75.3000;1.4082;1.4100;
75.6000;1.4082;1.4051;
75.9000;1.4074;1.4100;
76.2000;1.4188;1.4396;
76.5000;1.4107;1.4125;
76.8000;1.4050;1.4051;
77.1000;1.4017;1.3953;
77.4000;1.4082;1.4051;
77.7000;1.4066;1.3953;
78.0000;1.4050;1.3977;
78.3000;1.4050;1.4026;
78.6000;1.4123;1.4174;
78.9000;1.4025;1.4026;
79.2000;1.4050;1.4100;
79.5000;1.4058;1.4026;
79.8000;1.4066;1.4150;
80.1000;1.4082;1.4223;
80.4000;1.4033;1.4125;
80.7000;1.4033;1.4026;
81.0000;1.4066;1.4076;
81.3000;1.4066;1.4026;
81.6000;1.4074;1.4026;
81.9000;1.4082;1.4026;
82.2000;1.4074;1.4002;
82.5000;1.4074;1.3977;
82.8000;1.4074;1.4002;
83.1000;1.4074;1.3854;
83.4000;1.4066;1.3830;
83.7000;1.4098;1.3977;
84.0000;1.4098;1.3977;
84.3000;1.4082;1.3928;
84.6000;1.4098;1.4051;
84.9000;1.4098;1.4076;
85.2000;1.4090;1.4002;
85.5000;1.4090;1.4026;
85.8000;1.4082;1.3903;
86.1000;1.4098;1.3928;
86.4000;1.4107;1.3903;
86.7000;1.4098;1.3854;
87.0000;1.4098;1.3879;
87.3000;1.4058;1.3756;
87.6000;1.4082;1.3830;
87.9000;1.4082;1.3780;
88.2000;1.4074;1.3731;
88.5000;1.4090;1.3903;
88.8000;1.4107;1.3977;
89.1000;1.4090;1.4076;
89.4000;1.4115;1.4100;
89.7000;1.4098;1.4051;
90.0000;1.4115;1.4100;
90.3000;1.4107;1.4076;
90.6000;1.4115;1.4076;
90.9000;1.4131;1.4100;
91.2000;1.4107;1.3977;
91.5000;1.4107;1.4026;
91.8000;1.4082;1.3977;
92.1000;1.4107;1.4076;
92.4000;1.4115;1.4076;
92.7000;1.4123;1.4051;
93.0000;1.4098;1.3977;
93.3000;1.4098;1.3977;
93.6000;1.4131;1.4051;
93.9000;1.4082;1.4002;
94.2000;1.4115;1.4076;
94.5000;1.4115;1.4076;
94.8000;1.4123;1.4026;
95.1000;1.4131;1.4076;
95.4000;1.4131;1.4002;
95.7000;1.4147;1.4026;
96.0000;1.4115;1.4026;
96.3000;1.4115;1.3977;
96.6000;1.4115;1.3977;
96.9000;1.4090;1.3805;
97.2000;1.4131;1.3879;
97.5000;1.4155;1.3977;
97.8000;1.4139;1.4002;
98.1000;1.4131;1.4051;
98.4000;1.4115;1.4026;
98.7000;1.4139;1.4051;
99.0000;1.4147;1.4150;
99.3000;1.4131;1.4100;
99.6000;1.4164;1.4051;
99.9000;1.4139;1.3977;
100.2000;1.4147;1.4026;
100.5000;1.4164;1.4026;
100.8000;1.4131;1.4002;
101.1000;1.4180;1.4076;
101.4000;1.4196;1.4125;
101.7000;1.4147;1.4026;
102.0000;1.4139;1.4026;
102.3000;1.4180;1.4002;
102.6000;1.4164;1.3977;
102.9000;1.4115;1.3903;
103.2000;1.4131;1.3977;
103.5000;1.4131;1.4026;
103.8000;1.4172;1.4002;
104.1000;1.4139;1.3854;
104.4000;1.4147;1.3879;
104.7000;1.4115;1.3805;
105.0000;1.4139;1.3879;
105.3000;1.4196;1.3977;
105.6000;1.4147;1.3830;
105.9000;1.4139;1.3903;
106.2000;1.4139;1.4026;
106.5000;1.4139;1.4051;
106.8000;1.4147;1.4100;
107.1000;1.4147;1.4002;
107.4000;1.4164;1.3953;
107.7000;1.4155;1.3953;
108.0000;1.4188;1.4026;
108.3000;1.4147;1.3953;
108.6000;1.4147;1.3953;
108.9000;1.4131;1.3977;
109.2000;1.4164;1.4125;
109.5000;1.4147;1.4051;
109.8000;1.4172;1.4026;
110.1000;1.4155;1.4026;
110.4000;1.4147;1.3928;
110.7000;1.4155;1.3879;
111.0000;1.4139;1.3903;
111.3000;1.4172;1.3879;
111.6000;1.4147;1.3879;
111.9000;1.4155;1.3928;
112.2000;1.4147;1.3879;
112.5000;1.4155;1.3879;
112.8000;1.4172;1.3879;
113.1000;1.4155;1.3780;
113.4000;1.4139;1.3756;
113.7000;1.4155;1.3756;
114.0000;1.4147;1.3731;
114.3000;1.4164;1.3707;
114.6000;1.4172;1.3731;
114.9000;1.4155;1.3731;
115.2000;1.4164;1.3682;
115.5000;1.4172;1.3682;
115.8000;1.4172;1.3584;
116.1000;1.4188;1.3731;
116.4000;1.4180;1.3854;
116.7000;1.4164;1.3879;
117.0000;1.4180;1.3879;
117.3000;1.4172;1.3805;
117.6000;1.4196;1.3830;
117.9000;1.4164;1.3731;
118.2000;1.4188;1.3707;
118.5000;1.4155;1.3584;
118.8000;1.4172;1.3707;
119.1000;1.4172;1.3731;
119.4000;1.4172;1.3731;
119.7000;1.4180;1.3756;
120.0000;1.4147;1.3731;
120.3000;1.4188;1.3953;
120.6000;1.4196;1.3879;
120.9000;1.4180;1.3854;
121.2000;1.4196;1.3903;
121.5000;1.4188;1.3879;
121.8000;1.4172;1.3879;
122.1000;1.4237;1.4076;
122.4000;1.4172;1.3879;
122.7000;1.4172;1.3830;
123.0000;1.4164;1.3731;
123.3000;1.4196;1.3854;
123.6000;1.4204;1.3879;
123.9000;1.4180;1.3731;
124.2000;1.4155;1.3657;
124.5000;1.4221;1.3830;
124.8000;1.4204;1.3756;
125.1000;1.4172;1.3707;
125.4000;1.4253;1.3953;
125.7000;1.4196;1.3854;
126.0000;1.4188;1.3682;
126.3000;1.4196;1.3657;
126.6000;1.4188;1.3633;
126.9000;1.4180;1.3633;
127.2000;1.4196;1.3633;
127.5000;1.4172;1.3633;
127.8000;1.4180;1.3682;
128.1000;1.4188;1.3657;
128.4000;1.4204;1.3657;
128.7000;1.4204;1.3707;
129.0000;1.4196;1.3633;
129.3000;1.4188;1.3682;
129.6000;1.4180;1.3731;
129.9000;1.4204;1.3805;
130.2000;1.4196;1.3805;
130.5000;1.4188;1.3830;
130.8000;1.4196;1.3830;
131.1000;1.4204;1.3830;
131.4000;1.4188;1.3854;
131.7000;1.4204;1.3879;
132.0000;1.4188;1.3756;
132.3000;1.4164;1.3633;
132.6000;1.4212;1.3805;
132.9000;1.4237;1.3903;
133.2000;1.4180;1.3805;
133.5000;1.4204;1.3780;
133.8000;1.4204;1.3854;
134.1000;1.4204;1.3928;
134.4000;1.4196;1.3928;
134.7000;1.4204;1.3953;
135.0000;1.4204;1.3977;
135.3000;1.4212;1.3903;
135.6000;1.4212;1.3830;
135.9000;1.4204;1.3854;
136.2000;1.4204;1.3854;
136.5000;1.4204;1.3879;
136.8000;1.4212;1.3953;
137.1000;1.4212;1.4051;
137.4000;1.4229;1.3977;
137.7000;1.4221;1.3977;
138.0000;1.4221;1.3953;
138.3000;1.4212;1.3928;
138.6000;1.4204;1.3879;
138.9000;1.4196;1.3780;
139.2000;1.4196;1.3854;
139.5000;1.4196;1.3879;
139.8000;1.4196;1.3903;
140.1000;1.4204;1.3977;
140.4000;1.4204;1.3953;
140.7000;1.4204;1.3953;
141.0000;1.4212;1.3953;
141.3000;1.4212;1.3977;
141.6000;1.4221;1.3953;
141.9000;1.4212;1.3879;
142.2000;1.4212;1.3928;
142.5000;1.4221;1.3953;
142.8000;1.4221;1.3854;
143.1000;1.4221;1.3879;
143.4000;1.4229;1.3879;
143.7000;1.4221;1.3928;
144.0000;1.4229;1.3830;
144.3000;1.4221;1.3854;
144.6000;1.4212;1.3830;
144.9000;1.4204;1.3830;
145.2000;1.4229;1.3928;
145.5000;1.4212;1.3928;
145.8000;1.4221;1.3953;
146.1000;1.4245;1.3977;
146.4000;1.4253;1.4051;
146.7000;1.4253;1.3953;
147.0000;1.4229;1.3879;
147.3000;1.4212;1.3928;
147.6000;1.4229;1.3977;
147.9000;1.4229;1.4026;
148.2000;1.4212;1.3977;
148.5000;1.4237;1.3953;
148.8000;1.4221;1.3903;
149.1000;1.4196;1.3805;
149.4000;1.4212;1.3780;
149.7000;1.4212;1.3830;
150.0000;1.4204;1.3830;
150.3000;1.4229;1.3879;
150.6000;1.4221;1.3830;
150.9000;1.4212;1.3903;
151.2000;1.4212;1.3830;
151.5000;1.4188;1.3731;
151.8000;1.4212;1.3780;
152.1000;1.4204;1.3780;
152.4000;1.4229;1.3756;
152.7000;1.4229;1.3805;
153.0000;1.4253;1.3780;
153.3000;1.4237;1.3830;
153.6000;1.4196;1.3805;
153.9000;1.4229;1.3928;
154.2000;1.4221;1.3903;
154.5000;1.4229;1.3928;
154.8000;1.4229;1.3928;
155.1000;1.4229;1.3830;
155.4000;1.4221;1.3830;
155.7000;1.4221;1.3756;
156.0000;1.4245;1.3805;
156.3000;1.4229;1.3731;
156.6000;1.4237;1.3830;
156.9000;1.4229;1.3928;
157.2000;1.4229;1.3953;
157.5000;1.4221;1.3977;
157.8000;1.4237;1.3953;
158.1000;1.4237;1.3879;
158.4000;1.4229;1.3830;
158.7000;1.4237;1.3731;
159.0000;1.4245;1.3682;
159.3000;1.4253;1.3707;
159.6000;1.4245;1.3633;
159.9000;1.4245;1.3534;
160.2000;1.4229;1.3461;
160.5000;1.4237;1.3510;
160.8000;1.4253;1.3559;
161.1000;1.4237;1.3510;
161.4000;1.4253;1.3534;
161.7000;1.4253;1.3510;
162.0000;1.4294;1.3534;
162.3000;1.4245;1.3387;
162.6000;1.4261;1.3510;
162.9000;1.4278;1.3510;
163.2000;1.4261;1.3534;
163.5000;1.4253;1.3485;
163.8000;1.4261;1.3559;
164.1000;1.4172;1.3313;
164.4000;1.4261;1.3510;
164.7000;1.4245;1.3534;
165.0000;1.4286;1.3657;
165.3000;1.4237;1.3608;
165.6000;1.4245;1.3657;
165.9000;1.4269;1.3608;
166.2000;1.4221;1.3534;
166.5000;1.4245;1.3682;
166.8000;1.4278;1.3830;
167.1000;1.4237;1.3731;
167.4000;1.4237;1.3731;
167.7000;1.4253;1.3780;
168.0000;1.4229;1.3731;
168.3000;1.4237;1.3731;
168.6000;1.4229;1.3608;
168.9000;1.4245;1.3608;
169.2000;1.4261;1.3657;
169.5000;1.4261;1.3682;
169.8000;1.4286;1.3682;
170.1000;1.4269;1.3559;
170.4000;1.4245;1.3534;
170.7000;1.4261;1.3657;
171.0000;1.4245;1.3608;
171.3000;1.4261;1.3510;
171.6000;1.4245;1.3461;
171.9000;1.4253;1.3411;
172.2000;1.4278;1.3485;
172.5000;1.4261;1.3510;
172.8000;1.4229;1.3461;
173.1000;1.4261;1.3436;
173.4000;1.4269;1.3436;
173.7000;1.4221;1.3214;
174.0000;1.4237;1.3264;
174.3000;1.4253;1.3362;
174.6000;1.4253;1.3436;
174.9000;1.4229;1.3461;
175.2000;1.4229;1.3411;
175.5000;1.4253;1.3337;
175.8000;1.4253;1.3288;
176.1000;1.4261;1.3337;
176.4000;1.4278;1.3461;
176.7000;1.4253;1.3411;
177.0000;1.4278;1.3510;
177.3000;1.4221;1.3387;
177.6000;1.4237;1.3461;
177.9000;1.4261;1.3534;
178.2000;1.4245;1.3510;
178.5000;1.4245;1.3559;
178.8000;1.4261;1.3633;
179.1000;1.4261;1.3584;
179.4000;1.4237;1.3534;
179.7000;1.4253;1.3534;
180.0000;1.4310;1.3682;
180.3000;1.4245;1.3534;
180.6000;1.4261;1.3485;
180.9000;1.4253;1.3461;
181.2000;1.4269;1.3534;
181.5000;1.4261;1.3485;
181.8000;1.4261;1.3461;
182.1000;1.4245;1.3436;
182.4000;1.4261;1.3387;
182.7000;1.4245;1.3362;
183.0000;1.4269;1.3461;
183.3000;1.4253;1.3411;
183.6000;1.4261;1.3510;
183.9000;1.4245;1.3436;
184.2000;1.4261;1.3559;
184.5000;1.4253;1.3559;
184.8000;1.4261;1.3485;
185.1000;1.4286;1.3510;
185.4000;1.4261;1.3485;
185.7000;1.4245;1.3461;
186.0000;1.4269;1.3461;
186.3000;1.4269;1.3461;
186.6000;1.4261;1.3485;
186.9000;1.4269;1.3510;
187.2000;1.4269;1.3510;
187.5000;1.4278;1.3559;
187.8000;1.4278;1.3559;
188.1000;1.4245;1.3461;
188.4000;1.4278;1.3510;
188.7000;1.4286;1.3485;
189.0000;1.4318;1.3461;
189.3000;1.4278;1.3337;
189.6000;1.4269;1.3288;
189.9000;1.4302;1.3288;
190.2000;1.4302;1.3264;
190.5000;1.4269;1.3190;
190.8000;1.4278;1.3214;
191.1000;1.4212;1.3091;
191.4000;1.4286;1.3288;
191.7000;1.4286;1.3313;
192.0000;1.4286;1.3362;
192.3000;1.4278;1.3313;
192.6000;1.4269;1.3239;
192.9000;1.4286;1.3313;
193.2000;1.4302;1.3313;
193.5000;1.4253;1.3239;
193.8000;1.4261;1.3313;
194.1000;1.4294;1.3436;
194.4000;1.4278;1.3436;
194.7000;1.4278;1.3387;
195.0000;1.4286;1.3461;
195.3000;1.4286;1.3461;
195.6000;1.4286;1.3485;
195.9000;1.4261;1.3461;
196.2000;1.4286;1.3485;
196.5000;1.4286;1.3485;
196.8000;1.4269;1.3387;
197.1000;1.4302;1.3387;
197.4000;1.4245;1.3190;
197.7000;1.4294;1.3313;
198.0000;1.4278;1.3264;
198.3000;1.4278;1.3264;
198.6000;1.4278;1.3288;
198.9000;1.4278;1.3239;
199.2000;1.4294;1.3337;
199.5000;1.4286;1.3313;
199.8000;1.4278;1.3337;
200.1000;1.4286;1.3165;
200.4000;1.4286;1.3141;
200.7000;1.4278;1.3239;
201.0000;1.4278;1.3190;
201.3000;1.4310;1.3288;
201.6000;1.4286;1.3239;
201.9000;1.4294;1.3362;
202.2000;1.4278;1.3411;
202.5000;1.4278;1.3436;
202.8000;1.4294;1.3461;
203.1000;1.4286;1.3411;
203.4000;1.4278;1.3362;
203.7000;1.4286;1.3461;
204.0000;1.4261;1.3510;
204.3000;1.4326;1.3780;
204.6000;1.4278;1.3707;
204.9000;1.4286;1.3707;
205.2000;1.4278;1.3756;
205.5000;1.4294;1.3731;
205.8000;1.4278;1.3633;
206.1000;1.4286;1.3657;
206.4000;1.4286;1.3534;
206.7000;1.4294;1.3485;
207.0000;1.4294;1.3411;
207.3000;1.4278;1.3337;
207.6000;1.4278;1.3313;
207.9000;1.4286;1.3288;
208.2000;1.4302;1.3313;
208.5000;1.4302;1.3337;
208.8000;1.4286;1.3288;
209.1000;1.4278;1.3337;
209.4000;1.4269;1.3436;
209.7000;1.4278;1.3485;
210.0000;1.4278;1.3436;
210.3000;1.4286;1.3461;
210.6000;1.4318;1.3461;
210.9000;1.4286;1.3436;
211.2000;1.4229;1.3436;
211.5000;1.4269;1.3633;
211.8000;1.4278;1.3682;
212.1000;1.4286;1.3707;
212.4000;1.4294;1.3756;
212.7000;1.4269;1.3559;
213.0000;1.4278;1.3559;
213.3000;1.4286;1.3559;
213.6000;1.4326;1.3657;
213.9000;1.4294;1.3657;
214.2000;1.4302;1.3682;
214.5000;1.4318;1.3707;
214.8000;1.4326;1.3657;
215.1000;1.4286;1.3633;
215.4000;1.4302;1.3657;
215.7000;1.4294;1.3633;
216.0000;1.4286;1.3608;
216.3000;1.4367;1.3780;
216.6000;1.4294;1.3608;
216.9000;1.4294;1.3584;
217.2000;1.4286;1.3682;
217.5000;1.4294;1.3608;
217.8000;1.4294;1.3608;
218.1000;1.4286;1.3584;
218.4000;1.4278;1.3584;
218.7000;1.4294;1.3633;
219.0000;1.4286;1.3534;
219.3000;1.4286;1.3510;
219.6000;1.4237;1.3411;
219.9000;1.4261;1.3387;
220.2000;1.4302;1.3411;
220.5000;1.4278;1.3239;
220.8000;1.4286;1.3288;
221.1000;1.4278;1.3214;
221.4000;1.4212;1.2993;
221.7000;1.4269;1.3313;
222.0000;1.4286;1.3362;
222.3000;1.4245;1.3387;
222.6000;1.4278;1.3461;
222.9000;1.4269;1.3436;
223.2000;1.4294;1.3534;
223.5000;1.4286;1.3461;
223.8000;1.4286;1.3436;
224.1000;1.4278;1.3362;
224.4000;1.4269;1.3362;
224.7000;1.4310;1.3436;
225.0000;1.4286;1.3362;
225.3000;1.4269;1.3288;
225.6000;1.4245;1.3190;
225.9000;1.4294;1.3313;
226.2000;1.4294;1.3288;
226.5000;1.4294;1.3264;
226.8000;1.4294;1.3288;
227.1000;1.4302;1.3313;
227.4000;1.4318;1.3337;
227.7000;1.4310;1.3288;
228.0000;1.4302;1.3190;
228.3000;1.4278;1.3214;
228.6000;1.4294;1.3239;
228.9000;1.4302;1.3214;
229.2000;1.4286;1.3141;
229.5000;1.4294;1.3239;
229.8000;1.4294;1.3264;
230.1000;1.4302;1.3411;
230.4000;1.4318;1.3461;
230.7000;1.4294;1.3485;
231.0000;1.4294;1.3534;
231.3000;1.4286;1.3559;
231.6000;1.4278;1.3461;
231.9000;1.4318;1.3584;
232.2000;1.4302;1.3657;
232.5000;1.4302;1.3657;
232.8000;1.4302;1.3584;
233.1000;1.4310;1.3510;
233.4000;1.4310;1.3485;
233.7000;1.4318;1.3461;
234.0000;1.4286;1.3337;
234.3000;1.4310;1.3337;
234.6000;1.4245;1.3239;
234.9000;1.4310;1.3362;
235.2000;1.4310;1.3411;
235.5000;1.4302;1.3411;
235.8000;1.4294;1.3313;
236.1000;1.4302;1.3387;
236.4000;1.4302;1.3387;
236.7000;1.4310;1.3461;
237.0000;1.4294;1.3510;
237.3000;1.4294;1.3559;
237.6000;1.4302;1.3534;
237.9000;1.4294;1.3510;
238.2000;1.4310;1.3510;
238.5000;1.4302;1.3436;
238.8000;1.4335;1.3362;
239.1000;1.4286;1.3239;
239.4000;1.4318;1.3337;
239.7000;1.4278;1.3337;
240.0000;1.4294;1.3288;
240.3000;1.4318;1.3337;
240.6000;1.4302;1.3362;
240.9000;1.4302;1.3264;
241.2000;1.4310;1.3264;
241.5000;1.4310;1.3362;
241.8000;1.4302;1.3411;
242.1000;1.4326;1.3461;
242.4000;1.4335;1.3510;
242.7000;1.4318;1.3461;
243.0000;1.4318;1.3534;
243.3000;1.4245;1.3436;
243.6000;1.4269;1.3510;
243.9000;1.4310;1.3633;
244.2000;1.4310;1.3559;
244.5000;1.4302;1.3534;
244.8000;1.4310;1.3584;
245.1000;1.4326;1.3461;
245.4000;1.4318;1.3485;
245.7000;1.4326;1.3387;
246.0000;1.4318;1.3313;
246.3000;1.4269;1.3288;
246.6000;1.4318;1.3461;
246.9000;1.4351;1.3584;
247.2000;1.4278;1.3461;
247.5000;1.4294;1.3608;
247.8000;1.4302;1.3657;
248.1000;1.4310;1.3633;
248.4000;1.4261;1.3485;
248.7000;1.4302;1.3534;
249.0000;1.4326;1.3534;
249.3000;1.4302;1.3485;
249.6000;1.4302;1.3485;
249.9000;1.4302;1.3559;
250.2000;1.4310;1.3633;
250.5000;1.4302;1.3534;
250.8000;1.4278;1.3534;
251.1000;1.4286;1.3608;
251.4000;1.4294;1.3584;
251.7000;1.4318;1.3559;
252.0000;1.4302;1.3510;
252.3000;1.4302;1.3485;
252.6000;1.4302;1.3485;
252.9000;1.4302;1.3411;
253.2000;1.4326;1.3534;
253.5000;1.4310;1.3559;
253.8000;1.4294;1.3510;
254.1000;1.4318;1.3559;
254.4000;1.4335;1.3657;
254.7000;1.4310;1.3461;
255.0000;1.4318;1.3485;
255.3000;1.4302;1.3436;
255.6000;1.4302;1.3436;
255.9000;1.4326;1.3436;
256.2000;1.4286;1.3387;
256.5000;1.4278;1.3362;
256.8000;1.4351;1.3510;
257.1000;1.4310;1.3436;
257.4000;1.4294;1.3411;
257.7000;1.4302;1.3534;
258.0000;1.4294;1.3485;
258.3000;1.4302;1.3436;
258.6000;1.4278;1.3313;
258.9000;1.4294;1.3411;
259.2000;1.4294;1.3362;
259.5000;1.4302;1.3411;
259.8000;1.4302;1.3436;
260.1000;1.4302;1.3461;
260.4000;1.4294;1.3411;
260.7000;1.4269;1.3337;
261.0000;1.4302;1.3362;
261.3000;1.4294;1.3362;
261.6000;1.4294;1.3387;
261.9000;1.4302;1.3510;
262.2000;1.4310;1.3534;
262.5000;1.4326;1.3510;
262.8000;1.4318;1.3461;
263.1000;1.4310;1.3461;
263.4000;1.4318;1.3485;
263.7000;1.4318;1.3485;
264.0000;1.4302;1.3387;
264.3000;1.4302;1.3337;
264.6000;1.4326;1.3362;
264.9000;1.4335;1.3362;
265.2000;1.4359;1.3510;
265.5000;1.4326;1.3362;
265.8000;1.4294;1.3190;
266.1000;1.4310;1.3288;
266.4000;1.4310;1.3362;
266.7000;1.4318;1.3362;
267.0000;1.4253;1.3313;
267.3000;1.4326;1.3485;
267.6000;1.4343;1.3559;
267.9000;1.4310;1.3411;
268.2000;1.4310;1.3362;
268.5000;1.4310;1.3411;
268.8000;1.4310;1.3485;
269.1000;1.4318;1.3559;
269.4000;1.4310;1.3633;
269.7000;1.4245;1.3534;
270.0000;1.4318;1.3756;
270.3000;1.4261;1.3584;
270.6000;1.4286;1.3584;
270.9000;1.4318;1.3657;
271.2000;1.4326;1.3584;
271.5000;1.4302;1.3559;
271.8000;1.4237;1.3387;
272.1000;1.4302;1.3534;
272.4000;1.4343;1.3559;
272.7000;1.4286;1.3387;
273.0000;1.4310;1.3411;
273.3000;1.4294;1.3313;
273.6000;1.4302;1.3337;
273.9000;1.4318;1.3313;
274.2000;1.4310;1.3313;
274.5000;1.4294;1.3288;
274.8000;1.4302;1.3362;
275.1000;1.4302;1.3313;
275.4000;1.4294;1.3313;
275.7000;1.4367;1.3510;
276.0000;1.4318;1.3387;
276.3000;1.4326;1.3436;
276.6000;1.4310;1.3436;
276.9000;1.4310;1.3436;
277.2000;1.4294;1.3387;
277.5000;1.4326;1.3510;
277.8000;1.4318;1.3485;
278.1000;1.4326;1.3485;
278.4000;1.4310;1.3461;
278.7000;1.4335;1.3436;
279.0000;1.4294;1.3288;
279.3000;1.4294;1.3214;
279.6000;1.4318;1.3239;
279.9000;1.4326;1.3313;
280.2000;1.4294;1.3239;
280.5000;1.4326;1.3264;
280.8000;1.4318;1.3239;
281.1000;1.4294;1.3141;
281.4000;1.4310;1.3239;
281.7000;1.4343;1.3313;
282.0000;1.4318;1.3288;
282.3000;1.4310;1.3337;
282.6000;1.4204;1.3116;
282.9000;1.4302;1.3485;
283.2000;1.4310;1.3534;
283.5000;1.4302;1.3485;
283.8000;1.4302;1.3411;
284.1000;1.4310;1.3510;
284.4000;1.4310;1.3485;
284.7000;1.4326;1.3584;
285.0000;1.4310;1.3485;
285.3000;1.4302;1.3485;
285.6000;1.4318;1.3510;
285.9000;1.4326;1.3485;
286.2000;1.4286;1.3362;
286.5000;1.4318;1.3485;
286.8000;1.4310;1.3534;
287.1000;1.4310;1.3485;
287.4000;1.4326;1.3510;
287.7000;1.4326;1.3584;
288.0000;1.4335;1.3584;
288.3000;1.4286;1.3461;
288.6000;1.4302;1.3485;
288.9000;1.4343;1.3559;
289.2000;1.4326;1.3411;
289.5000;1.4310;1.3313;
289.8000;1.4326;1.3313;
290.1000;1.4261;1.3116;
290.4000;1.4302;1.3190;
290.7000;1.4326;1.3165;
291.0000;1.4302;1.3141;
291.3000;1.4310;1.3165;
291.6000;1.4310;1.3239;
291.9000;1.4335;1.3362;
292.2000;1.4302;1.3313;
292.5000;1.4302;1.3337;
292.8000;1.4310;1.3288;
293.1000;1.4318;1.3362;
293.4000;1.4269;1.3411;
293.7000;1.4302;1.3411;
294.0000;1.4326;1.3436;
294.3000;1.4261;1.3288;
294.6000;1.4318;1.3387;
294.9000;1.4278;1.3288;
295.2000;1.4302;1.3362;
295.5000;1.4318;1.3461;
295.8000;1.4310;1.3485;
296.1000;1.4310;1.3534;
296.4000;1.4310;1.3485;
296.7000;1.4302;1.3461;
297.0000;1.4278;1.3387;
297.3000;1.4375;1.3584;
297.6000;1.4286;1.3362;
297.9000;1.4310;1.3362;
298.2000;1.4326;1.3387;
298.5000;1.4310;1.3436;
298.8000;1.4269;1.3337;
299.1000;1.4310;1.3485;
299.4000;1.4294;1.3436;
299.7000;1.4294;1.3411;
300.0000;1.4335;1.3411;
300.3000;1.4326;1.3387;
300.6000;1.4310;1.3461;
300.9000;1.4310;1.3510;
301.2000;1.4318;1.3584;
301.5000;1.4278;1.3559;
301.8000;1.4318;1.3657;
302.1000;1.4302;1.3559;
302.4000;1.4269;1.3436;
302.7000;1.4302;1.3510;
303.0000;1.4310;1.3362;
303.3000;1.4326;1.3387;
303.6000;1.4318;1.3337;
303.9000;1.4302;1.3337;
304.2000;1.4302;1.3288;
304.5000;1.4302;1.3313;
304.8000;1.4318;1.3387;
305.1000;1.4310;1.3362;
305.4000;1.4326;1.3387;
305.7000;1.4237;1.3239;
306.0000;1.4335;1.3485;
306.3000;1.4318;1.3485;
306.6000;1.4318;1.3411;
306.9000;1.4326;1.3436;
307.2000;1.4278;1.3362;
307.5000;1.4326;1.3510;
307.8000;1.4302;1.3461;
308.1000;1.4335;1.3584;
308.4000;1.4310;1.3510;
308.7000;1.4302;1.3461;
309.0000;1.4318;1.3461;
309.3000;1.4294;1.3461;
309.6000;1.4359;1.3485;
309.9000;1.4318;1.3362;
310.2000;1.4294;1.3362;
310.5000;1.4326;1.3387;
310.8000;1.4343;1.3510;
311.1000;1.4335;1.3485;
311.4000;1.4261;1.3239;
311.7000;1.4310;1.3362;
312.0000;1.4318;1.3313;
312.3000;1.4375;1.3461;
312.6000;1.4326;1.3337;
312.9000;1.4245;1.3116;
313.2000;1.4278;1.3165;
313.5000;1.4310;1.3387;
313.8000;1.4318;1.3534;
314.1000;1.4310;1.3559;
314.4000;1.4302;1.3534;
314.7000;1.4310;1.3387;
315.0000;1.4261;1.3337;
315.3000;1.4302;1.3337;
315.6000;1.4318;1.3387;
315.9000;1.4310;1.3337;
316.2000;1.4310;1.3313;
316.5000;1.4310;1.3387;
316.8000;1.4302;1.3436;
317.1000;1.4318;1.3510;
317.4000;1.4335;1.3510;
317.7000;1.4318;1.3584;
318.0000;1.4302;1.3559;
318.3000;1.4335;1.3510;
318.6000;1.4318;1.3461;
318.9000;1.4310;1.3362;
319.2000;1.4286;1.3313;
319.5000;1.4286;1.3337;
319.8000;1.4302;1.3387;
320.1000;1.4326;1.3411;
320.4000;1.4302;1.3387;
320.7000;1.4269;1.3387;
321.0000;1.4310;1.3461;
321.3000;1.4318;1.3485;
321.6000;1.4326;1.3485;
321.9000;1.4318;1.3559;
322.2000;1.4318;1.3608;
322.5000;1.4318;1.3534;
322.8000;1.4302;1.3411;
323.1000;1.4318;1.3436;
323.4000;1.4318;1.3411;
323.7000;1.4318;1.3362;
324.0000;1.4302;1.3337;
324.3000;1.4302;1.3288;
324.6000;1.4294;1.3190;
324.9000;1.4302;1.3313;
325.2000;1.4302;1.3411;
325.5000;1.4318;1.3436;
325.8000;1.4318;1.3510;
326.1000;1.4351;1.3633;
326.4000;1.4335;1.3461;
326.7000;1.4335;1.3362;
327.0000;1.4302;1.3288;
327.3000;1.4302;1.3264;
327.6000;1.4375;1.3411;
327.9000;1.4326;1.3264;
328.2000;1.4310;1.3239;
328.5000;1.4318;1.3264;
328.8000;1.4326;1.3313;
329.1000;1.4261;1.3190;
329.4000;1.4302;1.3387;
329.7000;1.4310;1.3436;
330.0000;1.4278;1.3362;
330.3000;1.4302;1.3387;
330.6000;1.4318;1.3485;
330.9000;1.4294;1.3387;
331.2000;1.4294;1.3337;
331.5000;1.4351;1.3461;
331.8000;1.4302;1.3362;
332.1000;1.4335;1.3387;
332.4000;1.4326;1.3461;
332.7000;1.4335;1.3510;
333.0000;1.4326;1.3534;
333.3000;1.4310;1.3584;
333.6000;1.4302;1.3510;
333.9000;1.4310;1.3510;
334.2000;1.4294;1.3485;
334.5000;1.4310;1.3510;
334.8000;1.4310;1.3584;
335.1000;1.4318;1.3657;
335.4000;1.4335;1.3657;
335.7000;1.4326;1.3608;
336.0000;1.4294;1.3534;
336.3000;1.4310;1.3510;
336.6000;1.4392;1.3707;
336.9000;1.4310;1.3485;
337.2000;1.4335;1.3559;
337.5000;1.4326;1.3608;
337.8000;1.4318;1.3608;
338.1000;1.4400;1.3780;
338.4000;1.4302;1.3559;
338.7000;1.4310;1.3534;
339.0000;1.4318;1.3657;
339.3000;1.4383;1.3854;
339.6000;1.4310;1.3633;
339.9000;1.4310;1.3657;
340.2000;1.4310;1.3584;
340.5000;1.4326;1.3584;
340.8000;1.4310;1.3510;
341.1000;1.4302;1.3510;
341.4000;1.4302;1.3559;
341.7000;1.4326;1.3682;
342.0000;1.4302;1.3559;
342.3000;1.4294;1.3534;
342.6000;1.4294;1.3559;
342.9000;1.4302;1.3559;
343.2000;1.4302;1.3559;
343.5000;1.4286;1.3534;
343.8000;1.4326;1.3633;
344.1000;1.4310;1.3633;
344.4000;1.4302;1.3657;
344.7000;1.4286;1.3633;
345.0000;1.4294;1.3731;
345.3000;1.4310;1.3707;
345.6000;1.4302;1.3682;
345.9000;1.4302;1.3731;
346.2000;1.4351;1.3756;
346.5000;1.4310;1.3608;
346.8000;1.4310;1.3608;
347.1000;1.4302;1.3608;
347.4000;1.4318;1.3682;
347.7000;1.4310;1.3657;
348.0000;1.4302;1.3682;
348.3000;1.4310;1.3682;
348.6000;1.4326;1.3780;
348.9000;1.4302;1.3657;
349.2000;1.4310;1.3657;
349.5000;1.4310;1.3584;
349.8000;1.4294;1.3559;
350.1000;1.4302;1.3534;
350.4000;1.4286;1.3559;
350.7000;1.4318;1.3510;
351.0000;1.4294;1.3510;
351.3000;1.4294;1.3510;
351.6000;1.4245;1.3411;
351.9000;1.4310;1.3559;
352.2000;1.4318;1.3559;
352.5000;1.4294;1.3559;
352.8000;1.4310;1.3510;
353.1000;1.4326;1.3608;
353.4000;1.4326;1.3559;
353.7000;1.4310;1.3485;
354.0000;1.4310;1.3584;
354.3000;1.4326;1.3584;
354.6000;1.4294;1.3584;
354.9000;1.4302;1.3608;
355.2000;1.4326;1.3584;
355.5000;1.4294;1.3485;
355.8000;1.4408;1.3780;
356.1000;1.4302;1.3534;
356.4000;1.4310;1.3633;
356.7000;1.4294;1.3682;
357.0000;1.4294;1.3584;
357.3000;1.4294;1.3584;
357.6000;1.4286;1.3608;
357.9000;1.4302;1.3584;
358.2000;1.4318;1.3510;
358.5000;1.4310;1.3485;
358.8000;1.4302;1.3608;
359.1000;1.4318;1.3608;
359.4000;1.4310;1.3608;
359.7000;1.4302;1.3534;
360.0000;1.4302;1.3510;
360.3000;1.4359;1.3707;
360.6000;1.4294;1.3510;
360.9000;1.4302;1.3534;
361.2000;1.4294;1.3559;
361.5000;1.4302;1.3534;
361.8000;1.4286;1.3510;
362.1000;1.4286;1.3485;
362.4000;1.4351;1.3608;
362.7000;1.4269;1.3411;
363.0000;1.4302;1.3436;
363.3000;1.4351;1.3559;
363.6000;1.4302;1.3436;
363.9000;1.4310;1.3485;
364.2000;1.4302;1.3485;
364.5000;1.4294;1.3461;
364.8000;1.4326;1.3534;
365.1000;1.4310;1.3436;
365.4000;1.4310;1.3436;
365.7000;1.4294;1.3510;
366.0000;1.4286;1.3461;
366.3000;1.4310;1.3485;
366.6000;1.4278;1.3362;
366.9000;1.4302;1.3436;
367.2000;1.4269;1.3362;
367.5000;1.4302;1.3485;
367.8000;1.4302;1.3510;
368.1000;1.4310;1.3461;
368.4000;1.4302;1.3411;
368.7000;1.4302;1.3387;
369.0000;1.4310;1.3387;
369.3000;1.4302;1.3264;
369.6000;1.4302;1.3239;
369.9000;1.4318;1.3313;
370.2000;1.4302;1.3214;
370.5000;1.4294;1.3239;
370.8000;1.4302;1.3264;
371.1000;1.4302;1.3239;
371.4000;1.4318;1.3264;
371.7000;1.4286;1.3239;
372.0000;1.4286;1.3264;
372.3000;1.4310;1.3436;
372.6000;1.4318;1.3461;
372.9000;1.4335;1.3510;
373.2000;1.4351;1.3559;
373.5000;1.4335;1.3534;
373.8000;1.4310;1.3584;
374.1000;1.4318;1.3633;
374.4000;1.4294;1.3510;
374.7000;1.4302;1.3510;
375.0000;1.4261;1.3387;
375.3000;1.4310;1.3510;
375.6000;1.4302;1.3584;
375.9000;1.4294;1.3633;
376.2000;1.4294;1.3633;
376.5000;1.4343;1.3682;
376.8000;1.4286;1.3559;
377.1000;1.4286;1.3510;
377.4000;1.4302;1.3436;
377.7000;1.4310;1.3510;
378.0000;1.4294;1.3461;
378.3000;1.4294;1.3387;
378.6000;1.4294;1.3436;
378.9000;1.4302;1.3461;
379.2000;1.4294;1.3559;
379.5000;1.4310;1.3682;
379.8000;1.4326;1.3682;
380.1000;1.4343;1.3682;
380.4000;1.4310;1.3682;
380.7000;1.4318;1.3707;
381.0000;1.4204;1.3362;
381.3000;1.4318;1.3559;
381.6000;1.4318;1.3485;
381.9000;1.4310;1.3461;
382.2000;1.4261;1.3387;
382.5000;1.4294;1.3534;
382.8000;1.4261;1.3485;
383.1000;1.4294;1.3584;
383.4000;1.4286;1.3559;
383.7000;1.4286;1.3485;
384.0000;1.4237;1.3387;
384.3000;1.4302;1.3608;
384.6000;1.4269;1.3534;
384.9000;1.4286;1.3534;
385.2000;1.4310;1.3584;
385.5000;1.4302;1.3584;
385.8000;1.4318;1.3633;
386.1000;1.4294;1.3633;
386.4000;1.4278;1.3657;
386.7000;1.4294;1.3731;
387.0000;1.4326;1.3805;
387.3000;1.4253;1.3633;
387.6000;1.4294;1.3682;
387.9000;1.4294;1.3682;
388.2000;1.4335;1.3731;
388.5000;1.4286;1.3608;
388.8000;1.4310;1.3707;
389.1000;1.4302;1.3559;
389.4000;1.4286;1.3608;
389.7000;1.4302;1.3633;
390.0000;1.4302;1.3756;
390.3000;1.4310;1.3805;
390.6000;1.4286;1.3682;
390.9000;1.4302;1.3780;
391.2000;1.4294;1.3731;
391.5000;1.4294;1.3682;
391.8000;1.4286;1.3731;
392.1000;1.4302;1.3731;
392.4000;1.4318;1.3756;
392.7000;1.4326;1.3756;
393.0000;1.4302;1.3682;
393.3000;1.4294;1.3608;
393.6000;1.4310;1.3731;
393.9000;1.4302;1.3780;
394.2000;1.4294;1.3731;
394.5000;1.4310;1.3805;
394.8000;1.4302;1.3854;
395.1000;1.4302;1.3756;
395.4000;1.4302;1.3756;
395.7000;1.4343;1.3805;
396.0000;1.4335;1.3780;
396.3000;1.4294;1.3731;
396.6000;1.4229;1.3510;
396.9000;1.4294;1.3608;
397.2000;1.4318;1.3608;
397.5000;1.4286;1.3608;
397.8000;1.4269;1.3559;
398.1000;1.4294;1.3559;
398.4000;1.4310;1.3633;
398.7000;1.4261;1.3534;
399.0000;1.4326;1.3731;
399.3000;1.4278;1.3707;
399.6000;1.4310;1.3780;
399.9000;1.4286;1.3805;
400.2000;1.4286;1.3780;
400.5000;1.4294;1.3854;
400.8000;1.4286;1.3854;
401.1000;1.4302;1.3977;
401.4000;1.4286;1.3879;
401.7000;1.4269;1.3879;
402.0000;1.4302;1.3805;
402.3000;1.4318;1.3805;
402.6000;1.4294;1.3780;
402.9000;1.4278;1.3805;
403.2000;1.4278;1.3780;
403.5000;1.4286;1.3756;
403.8000;1.4278;1.3756;
404.1000;1.4310;1.3731;
404.4000;1.4302;1.3682;
404.7000;1.4310;1.3682;
405.0000;1.4375;1.3805;
405.3000;1.4326;1.3707;
405.6000;1.4318;1.3657;
405.9000;1.4286;1.3657;
406.2000;1.4318;1.3756;
406.5000;1.4294;1.3657;
406.8000;1.4335;1.3780;
407.1000;1.4286;1.3633;
407.4000;1.4318;1.3707;
407.7000;1.4294;1.3633;
408.0000;1.4286;1.3608;
408.3000;1.4302;1.3682;
408.6000;1.4261;1.3707;
408.9000;1.4310;1.3756;
409.2000;1.4302;1.3707;
409.5000;1.4245;1.3584;
409.8000;1.4318;1.3682;
410.1000;1.4302;1.3584;
410.4000;1.4335;1.3707;
410.7000;1.4286;1.3707;
411.0000;1.4286;1.3584;
411.3000;1.4286;1.3608;
411.6000;1.4278;1.3584;
411.9000;1.4326;1.3756;
412.2000;1.4253;1.3534;
412.5000;1.4286;1.3510;
412.8000;1.4294;1.3534;
413.1000;1.4302;1.3461;
413.4000;1.4261;1.3387;
413.7000;1.4302;1.3534;
414.0000;1.4237;1.3461;
414.3000;1.4278;1.3633;
414.6000;1.4269;1.3633;
414.9000;1.4278;1.3608;
415.2000;1.4286;1.3608;
415.5000;1.4269;1.3559;
415.8000;1.4278;1.3559;
416.1000;1.4302;1.3559;
416.4000;1.4286;1.3534;
416.7000;1.4286;1.3461;
417.0000;1.4269;1.3411;
417.3000;1.4302;1.3510;
417.6000;1.4286;1.3608;
417.9000;1.4294;1.3633;
418.2000;1.4302;1.3633;
418.5000;1.4310;1.3608;
418.8000;1.4302;1.3559;
419.1000;1.4286;1.3559;
419.4000;1.4278;1.3608;
419.7000;1.4278;1.3608;
420.0000;1.4294;1.3633;
420.3000;1.4302;1.3657;
420.6000;1.4359;1.3854;
420.9000;1.4261;1.3534;
421.2000;1.4269;1.3534;
421.5000;1.4253;1.3461;
421.8000;1.4286;1.3584;
422.1000;1.4253;1.3559;
422.4000;1.4310;1.3608;
422.7000;1.4302;1.3657;
423.0000;1.4286;1.3633;
423.3000;1.4286;1.3633;
423.6000;1.4237;1.3411;
423.9000;1.4286;1.3633;
424.2000;1.4286;1.3657;
424.5000;1.4286;1.3657;
424.8000;1.4253;1.3633;
425.1000;1.4278;1.3707;
425.4000;1.4286;1.3731;
425.7000;1.4253;1.3707;
426.0000;1.4286;1.3657;
426.3000;1.4286;1.3707;
426.6000;1.4286;1.3657;
426.9000;1.4261;1.3633;
427.2000;1.4269;1.3608;
427.5000;1.4278;1.3584;
427.8000;1.4261;1.3608;
428.1000;1.4286;1.3707;
428.4000;1.4269;1.3584;
428.7000;1.4318;1.3682;
429.0000;1.4278;1.3584;
429.3000;1.4221;1.3510;
429.6000;1.4343;1.3830;
429.9000;1.4237;1.3584;
430.2000;1.4286;1.3756;
430.5000;1.4278;1.3805;
430.8000;1.4278;1.3682;
431.1000;1.4326;1.3780;
431.4000;1.4335;1.3780;
431.7000;1.4302;1.3731;
432.0000;1.4278;1.3707;
432.3000;1.4302;1.3780;
432.6000;1.4310;1.3805;
432.9000;1.4278;1.3780;
433.2000;1.4269;1.3830;
433.5000;1.4221;1.3633;
433.8000;1.4229;1.3682;
434.1000;1.4269;1.3756;
434.4000;1.4269;1.3780;
434.7000;1.4261;1.3731;
435.0000;1.4253;1.3731;
435.3000;1.4278;1.3707;
435.6000;1.4278;1.3731;
435.9000;1.4261;1.3682;
436.2000;1.4269;1.3657;
436.5000;1.4278;1.3633;
436.8000;1.4278;1.3682;
437.1000;1.4269;1.3682;
437.4000;1.4286;1.3756;
437.7000;1.4278;1.3805;
438.0000;1.4269;1.3756;
438.3000;1.4286;1.3707;
438.6000;1.4294;1.3805;
438.9000;1.4278;1.3780;
439.2000;1.4302;1.3805;
439.5000;1.4286;1.3780;
439.8000;1.4237;1.3780;
440.1000;1.4261;1.3903;
440.4000;1.4245;1.3928;
440.7000;1.4286;1.3903;
441.0000;1.4253;1.3830;
441.3000;1.4278;1.3854;
441.6000;1.4310;1.3854;
441.9000;1.4294;1.3805;
442.2000;1.4286;1.3731;
442.5000;1.4294;1.3731;
442.8000;1.4278;1.3780;
443.1000;1.4261;1.3780;
443.4000;1.4269;1.3780;
443.7000;1.4286;1.3756;
444.0000;1.4261;1.3780;
444.3000;1.4278;1.3879;
444.6000;1.4229;1.3756;
444.9000;1.4318;1.3903;
445.2000;1.4261;1.3780;
445.5000;1.4286;1.3879;
445.8000;1.4269;1.3854;
446.1000;1.4278;1.3879;
446.4000;1.4286;1.3928;
446.7000;1.4269;1.3903;
447.0000;1.4294;1.3977;
447.3000;1.4294;1.3903;
447.6000;1.4278;1.3903;
447.9000;1.4278;1.3879;
448.2000;1.4294;1.3903;
448.5000;1.4286;1.3830;
448.8000;1.4286;1.3731;
449.1000;1.4286;1.3731;
449.4000;1.4286;1.3756;
449.7000;1.4286;1.3830;
450.0000;1.4286;1.3805;
450.3000;1.4318;1.3903;
450.6000;1.4278;1.3903;
450.9000;1.4302;1.3928;
451.2000;1.4286;1.3928;
451.5000;1.4302;1.3953;
451.8000;1.4286;1.3953;
452.1000;1.4278;1.3928;
452.4000;1.4269;1.3903;
452.7000;1.4269;1.3879;
453.0000;1.4269;1.3780;
453.3000;1.4294;1.3780;
453.6000;1.4286;1.3756;
453.9000;1.4269;1.3707;
454.2000;1.4261;1.3805;
454.5000;1.4253;1.3903;
454.8000;1.4286;1.3928;
455.1000;1.4310;1.3977;
455.4000;1.4278;1.4002;
455.7000;1.4269;1.3928;
456.0000;1.4286;1.4002;
456.3000;1.4269;1.3903;
456.6000;1.4278;1.3879;
456.9000;1.4269;1.3830;
457.2000;1.4286;1.3805;
457.5000;1.4269;1.3830;
457.8000;1.4269;1.3805;
458.1000;1.4278;1.3805;
458.4000;1.4261;1.3756;
458.7000;1.4286;1.3854;
459.0000;1.4245;1.3805;
459.3000;1.4294;1.3928;
459.6000;1.4269;1.3928;
459.9000;1.4269;1.3928;
460.2000;1.4261;1.3903;
460.5000;1.4237;1.3879;
460.8000;1.4261;1.4002;
461.1000;1.4261;1.4100;
461.4000;1.4269;1.4026;
461.7000;1.4253;1.3903;
462.0000;1.4245;1.3830;
462.3000;1.4367;1.4100;
462.6000;1.4278;1.3854;
462.9000;1.4318;1.4026;
463.2000;1.4269;1.3977;
463.5000;1.4261;1.4026;
463.8000;1.4269;1.4026;
464.1000;1.4269;1.4051;
464.4000;1.4261;1.4051;
464.7000;1.4310;1.4174;
465.0000;1.4278;1.4100;
465.3000;1.4286;1.4026;
465.6000;1.4278;1.4051;
465.9000;1.4253;1.4100;
466.2000;1.4326;1.4248;
466.5000;1.4286;1.4125;
466.8000;1.4253;1.4051;
467.1000;1.4229;1.4051;
467.4000;1.4318;1.4248;
467.7000;1.4261;1.4100;
468.0000;1.4278;1.4026;
468.3000;1.4286;1.4051;
468.6000;1.4253;1.3928;
468.9000;1.4286;1.4076;
469.2000;1.4294;1.4051;
469.5000;1.4180;1.3854;
469.8000;1.4286;1.4100;
470.1000;1.4294;1.4174;
470.4000;1.4310;1.4273;
470.7000;1.4286;1.4199;
471.0000;1.4278;1.4150;
471.3000;1.4278;1.4174;
471.6000;1.4286;1.4150;
471.9000;1.4253;1.4026;
472.2000;1.4278;1.4002;
472.5000;1.4278;1.3903;
472.8000;1.4278;1.3854;
473.1000;1.4286;1.3903;
473.4000;1.4278;1.3879;
473.7000;1.4269;1.3805;
474.0000;1.4269;1.3830;
474.3000;1.4269;1.3830;
474.6000;1.4269;1.3879;
474.9000;1.4278;1.3903;
475.2000;1.4286;1.4002;
475.5000;1.4269;1.3928;
475.8000;1.4318;1.3928;
476.1000;1.4221;1.3682;
476.4000;1.4269;1.3756;
476.7000;1.4278;1.3805;
477.0000;1.4221;1.3756;
477.3000;1.4310;1.3977;
477.6000;1.4269;1.3953;
477.9000;1.4269;1.3953;
478.2000;1.4261;1.3953;
478.5000;1.4318;1.4125;
478.8000;1.4269;1.4002;
479.1000;1.4294;1.4076;
479.4000;1.4278;1.4100;
479.7000;1.4286;1.4026;
480.0000;1.4286;1.4026;
480.3000;1.4294;1.4100;
480.6000;1.4294;1.4150;
480.9000;1.4269;1.4100;
481.2000;1.4286;1.4174;
481.5000;1.4286;1.4150;
481.8000;1.4302;1.4199;
482.1000;1.4278;1.4150;
482.4000;1.4278;1.4174;
482.7000;1.4269;1.4223;
483.0000;1.4253;1.4223;
483.3000;1.4261;1.4297;
483.6000;1.4269;1.4199;
483.9000;1.4253;1.4150;
484.2000;1.4212;1.4002;
484.5000;1.4278;1.4125;
484.8000;1.4278;1.4125;
485.1000;1.4278;1.4076;
485.4000;1.4278;1.4002;
485.7000;1.4188;1.3805;
486.0000;1.4286;1.4174;
486.3000;1.4204;1.3928;
486.6000;1.4278;1.4100;
486.9000;1.4286;1.4100;
487.2000;1.4269;1.4051;
487.5000;1.4245;1.4051;
487.8000;1.4269;1.4051;
488.1000;1.4269;1.4026;
488.4000;1.4278;1.3977;
488.7000;1.4204;1.3830;
489.0000;1.4253;1.3977;
489.3000;1.4269;1.4100;
489.6000;1.4286;1.4174;
489.9000;1.4269;1.4125;
490.2000;1.4302;1.4199;
490.5000;1.4269;1.4125;
490.8000;1.4278;1.4150;
491.1000;1.4278;1.4150;
491.4000;1.4269;1.4076;
491.7000;1.4229;1.3903;
492.0000;1.4269;1.3977;
492.3000;1.4261;1.3977;
492.6000;1.4302;1.4100;
492.9000;1.4245;1.3928;
493.2000;1.4261;1.4002;
493.5000;1.4278;1.4125;
493.8000;1.4261;1.4150;
494.1000;1.4245;1.4150;
494.4000;1.4269;1.4174;
494.7000;1.4261;1.4174;
495.0000;1.4253;1.4076;
495.3000;1.4253;1.4002;
495.6000;1.4318;1.4100;
495.9000;1.4278;1.4002;
496.2000;1.4278;1.3953;
496.5000;1.4278;1.4026;
496.8000;1.4269;1.4002;
497.1000;1.4302;1.4100;
497.4000;1.4269;1.3977;
497.7000;1.4253;1.4002;
498.0000;1.4269;1.4051;
498.3000;1.4278;1.4076;
498.6000;1.4253;1.4026;
498.9000;1.4261;1.4002;
499.2000;1.4261;1.4076;
499.5000;1.4245;1.4174;
499.8000;1.4253;1.4223;
500.1000;1.4269;1.4150;
500.4000;1.4261;1.4051;
500.7000;1.4278;1.4100;
501.0000;1.4269;1.4199;
501.3000;1.4294;1.4248;
501.6000;1.4286;1.4150;
501.9000;1.4269;1.4076;
502.2000;1.4278;1.4150;
502.5000;1.4269;1.4174;
502.8000;1.4229;1.4125;
503.1000;1.4269;1.4322;
503.4000;1.4286;1.4297;
503.7000;1.4278;1.4346;
504.0000;1.4269;1.4297;
504.3000;1.4221;1.4100;
504.6000;1.4269;1.4223;
504.9000;1.4278;1.4199;
505.2000;1.4261;1.4297;
505.5000;1.4261;1.4223;
505.8000;1.4269;1.4297;
506.1000;1.4261;1.4273;
506.4000;1.4294;1.4346;
506.7000;1.4269;1.4371;
507.0000;1.4253;1.4322;
507.3000;1.4261;1.4297;
507.6000;1.4278;1.4273;
507.9000;1.4278;1.4199;
508.2000;1.4261;1.4199;
508.5000;1.4261;1.4174;
508.8000;1.4269;1.4150;
509.1000;1.4253;1.4150;
509.4000;1.4302;1.4248;
509.7000;1.4269;1.4223;
510.0000;1.4278;1.4174;
510.3000;1.4253;1.4076;
510.6000;1.4261;1.4076;
510.9000;1.4278;1.4174;
511.2000;1.4269;1.4125;
511.5000;1.4261;1.4150;
511.8000;1.4278;1.4174;
512.1000;1.4278;1.4223;
512.4000;1.4286;1.4248;
512.7000;1.4294;1.4150;
513.0000;1.4286;1.4150;
513.3000;1.4269;1.4100;
513.6000;1.4326;1.4223;
513.9000;1.4286;1.4150;
514.2000;1.4245;1.4199;
514.5000;1.4286;1.4371;
514.8000;1.4261;1.4248;
515.1000;1.4294;1.4273;
515.4000;1.4278;1.4223;
515.7000;1.4269;1.4174;
516.0000;1.4269;1.4273;
516.3000;1.4269;1.4223;
516.6000;1.4269;1.4199;
516.9000;1.4278;1.4223;
517.2000;1.4229;1.4150;
517.5000;1.4269;1.4248;
517.8000;1.4269;1.4273;
518.1000;1.4253;1.4150;
518.4000;1.4237;1.4150;
518.7000;1.4335;1.4322;
519.0000;1.4229;1.4199;
519.3000;1.4253;1.4297;
519.6000;1.4253;1.4371;
519.9000;1.4261;1.4322;
520.2000;1.4278;1.4273;
520.5000;1.4261;1.4248;
520.8000;1.4261;1.4322;
521.1000;1.4269;1.4297;
521.4000;1.4269;1.4199;
521.7000;1.4180;1.3928;
522.0000;1.4269;1.4174;
522.3000;1.4302;1.4223;
522.6000;1.4278;1.4248;
522.9000;1.4269;1.4297;
523.2000;1.4278;1.4494;
523.5000;1.4269;1.4445;
523.8000;1.4261;1.4469;
524.1000;1.4253;1.4519;
524.4000;1.4302;1.4592;
524.7000;1.4310;1.4543;
525.0000;1.4261;1.4396;
525.3000;1.4261;1.4445;
525.6000;1.4221;1.4322;
525.9000;1.4245;1.4420;
526.2000;1.4261;1.4371;
526.5000;1.4269;1.4346;
526.8000;1.4245;1.4371;
527.1000;1.4237;1.4322;
527.4000;1.4359;1.4568;
527.7000;1.4326;1.4568;
528.0000;1.4278;1.4445;
528.3000;1.4269;1.4494;
528.6000;1.4253;1.4420;
528.9000;1.4269;1.4420;
529.2000;1.4261;1.4371;
529.5000;1.4245;1.4396;
529.8000;1.4261;1.4469;
530.1000;1.4261;1.4445;
530.4000;1.4261;1.4420;
530.7000;1.4261;1.4371;
531.0000;1.4253;1.4396;
531.3000;1.4269;1.4396;
531.6000;1.4253;1.4420;
531.9000;1.4269;1.4494;
532.2000;1.4269;1.4519;
532.5000;1.4269;1.4494;
532.8000;1.4286;1.4494;
533.1000;1.4326;1.4716;
533.4000;1.4269;1.4666;
533.7000;1.4253;1.4519;
534.0000;1.4261;1.4445;
534.3000;1.4269;1.4445;
534.6000;1.4261;1.4396;
534.9000;1.4278;1.4371;
535.2000;1.4245;1.4297;
535.5000;1.4269;1.4346;
535.8000;1.4269;1.4322;
536.1000;1.4237;1.4248;
536.4000;1.4204;1.4199;
536.7000;1.4286;1.4543;
537.0000;1.4294;1.4469;
537.3000;1.4253;1.4469;
537.6000;1.4302;1.4543;
537.9000;1.4286;1.4445;
538.2000;1.4261;1.4445;
538.5000;1.4278;1.4568;
538.8000;1.4278;1.4642;
539.1000;1.4237;1.4543;
539.4000;1.4253;1.4445;
539.7000;1.4261;1.4445;
540.0000;1.4261;1.4469;
540.3000;1.4253;1.4469;
540.6000;1.4229;1.4469;
540.9000;1.4237;1.4494;
541.2000;1.4245;1.4494;
541.5000;1.4245;1.4371;
541.8000;1.4245;1.4346;
542.1000;1.4261;1.4494;
542.4000;1.4229;1.4396;
542.7000;1.4221;1.4469;
543.0000;1.4204;1.4346;
543.3000;1.4245;1.4494;
543.6000;1.4302;1.4666;
543.9000;1.4237;1.4494;
544.2000;1.4245;1.4420;
544.5000;1.4237;1.4445;
544.8000;1.4261;1.4494;
545.1000;1.4310;1.4592;
545.4000;1.4237;1.4346;
545.7000;1.4286;1.4543;
546.0000;1.4269;1.4469;
546.3000;1.4204;1.4371;
546.6000;1.4229;1.4396;
546.9000;1.4253;1.4445;
547.2000;1.4253;1.4445;
547.5000;1.4253;1.4420;
547.8000;1.4261;1.4396;
548.1000;1.4269;1.4420;
548.4000;1.4294;1.4494;
548.7000;1.4261;1.4445;
549.0000;1.4261;1.4469;
549.3000;1.4261;1.4494;
549.6000;1.4278;1.4494;
549.9000;1.4278;1.4469;
550.2000;1.4261;1.4494;
550.5000;1.4269;1.4445;
550.8000;1.4253;1.4420;
551.1000;1.4253;1.4568;
551.4000;1.4261;1.4494;
551.7000;1.4253;1.4445;
552.0000;1.4261;1.4519;
552.3000;1.4253;1.4666;
552.6000;1.4261;1.4568;
552.9000;1.4261;1.4568;
553.2000;1.4253;1.4494;
553.5000;1.4253;1.4469;
553.8000;1.4261;1.4543;
554.1000;1.4245;1.4494;
554.4000;1.4237;1.4396;
554.7000;1.4278;1.4494;
555.0000;1.4269;1.4543;
555.3000;1.4286;1.4617;
555.6000;1.4261;1.4617;
555.9000;1.4261;1.4617;
556.2000;1.4310;1.4814;
556.5000;1.4253;1.4666;
556.8000;1.4245;1.4666;
557.1000;1.4229;1.4543;
557.4000;1.4261;1.4617;
557.7000;1.4261;1.4568;
558.0000;1.4229;1.4592;
558.3000;1.4237;1.4592;
558.6000;1.4212;1.4519;
558.9000;1.4261;1.4592;
559.2000;1.4261;1.4617;
559.5000;1.4237;1.4642;
559.8000;1.4237;1.4642;
560.1000;1.4253;1.4765;
560.4000;1.4253;1.4814;
560.7000;1.4261;1.4789;
561.0000;1.4253;1.4814;
561.3000;1.4261;1.4716;
561.6000;1.4253;1.4691;
561.9000;1.4237;1.4568;
562.2000;1.4237;1.4568;
562.5000;1.4269;1.4568;
562.8000;1.4188;1.4371;
563.1000;1.4245;1.4519;
563.4000;1.4245;1.4519;
563.7000;1.4253;1.4494;
564.0000;1.4261;1.4445;
564.3000;1.4261;1.4494;
564.6000;1.4253;1.4519;
564.9000;1.4245;1.4519;
565.2000;1.4245;1.4568;
565.5000;1.4155;1.4494;
565.8000;1.4229;1.4642;
566.1000;1.4229;1.4716;
566.4000;1.4253;1.4740;
566.7000;1.4253;1.4691;
567.0000;1.4229;1.4666;
567.3000;1.4212;1.4592;
567.6000;1.4237;1.4543;
567.9000;1.4229;1.4494;
568.2000;1.4229;1.4543;
568.5000;1.4229;1.4592;
568.8000;1.4221;1.4592;
569.1000;1.4269;1.4691;
569.4000;1.4237;1.4592;
569.7000;1.4269;1.4642;
570.0000;1.4286;1.4740;
570.3000;1.4253;1.4617;
570.6000;1.4269;1.4592;
570.9000;1.4278;1.4592;
571.2000;1.4253;1.4519;
571.5000;1.4261;1.4592;
571.8000;1.4245;1.4568;
572.1000;1.4310;1.4765;
572.4000;1.4237;1.4519;
572.7000;1.4237;1.4543;
573.0000;1.4253;1.4543;
573.3000;1.4245;1.4543;
573.6000;1.4229;1.4494;
573.9000;1.4261;1.4543;
574.2000;1.4253;1.4543;
574.5000;1.4253;1.4592;
574.8000;1.4245;1.4543;
575.1000;1.4261;1.4568;
575.4000;1.4261;1.4666;
575.7000;1.4245;1.4592;
576.0000;1.4229;1.4494;
576.3000;1.4229;1.4543;
576.6000;1.4278;1.4568;
576.9000;1.4278;1.4568;
577.2000;1.4245;1.4568;
577.5000;1.4253;1.4568;
577.8000;1.4261;1.4642;
578.1000;1.4245;1.4666;
578.4000;1.4221;1.4642;
578.7000;1.4253;1.4666;
579.0000;1.4367;1.4839;
579.3000;1.4237;1.4519;
579.6000;1.4261;1.4617;
579.9000;1.4253;1.4642;
580.2000;1.4335;1.4863;
580.5000;1.4261;1.4691;
580.8000;1.4269;1.4691;
581.1000;1.4261;1.4691;
581.4000;1.4261;1.4592;
581.7000;1.4261;1.4617;
582.0000;1.4253;1.4617;
582.3000;1.4269;1.4691;
582.6000;1.4237;1.4716;
582.9000;1.4253;1.4765;
583.2000;1.4253;1.4691;
583.5000;1.4261;1.4592;
583.8000;1.4245;1.4494;
584.1000;1.4237;1.4543;
584.4000;1.4261;1.4666;
584.7000;1.4253;1.4666;
585.0000;1.4253;1.4740;
585.3000;1.4245;1.4716;
585.6000;1.4269;1.4789;
585.9000;1.4261;1.4765;
586.2000;1.4261;1.4839;
586.5000;1.4253;1.4839;
586.8000;1.4253;1.4863;
587.1000;1.4245;1.4863;
587.4000;1.4253;1.4789;
587.7000;1.4237;1.4666;
588.0000;1.4261;1.4642;
588.3000;1.4245;1.4691;
588.6000;1.4245;1.4691;
588.9000;1.4196;1.4469;
589.2000;1.4221;1.4469;
589.5000;1.4237;1.4519;
589.8000;1.4269;1.4543;
590.1000;1.4245;1.4494;
590.4000;1.4245;1.4543;
590.7000;1.4253;1.4666;
591.0000;1.4253;1.4691;
591.3000;1.4261;1.4716;
591.6000;1.4261;1.4642;
591.9000;1.4253;1.4617;
592.2000;1.4237;1.4494;
592.5000;1.4253;1.4469;
592.8000;1.4245;1.4420;
593.1000;1.4212;1.4396;
593.4000;1.4229;1.4519;
593.7000;1.4261;1.4519;
594.0000;1.4229;1.4494;
594.3000;1.4237;1.4469;
594.6000;1.4245;1.4519;
594.9000;1.4237;1.4568;
595.2000;1.4188;1.4519;
595.5000;1.4147;1.4494;
595.8000;1.4245;1.4765;
596.1000;1.4261;1.4839;
596.4000;1.4261;1.4888;
596.7000;1.4229;1.4839;
597.0000;1.4204;1.4716;
597.3000;1.4229;1.4765;
597.6000;1.4229;1.4765;
597.9000;1.4245;1.4814;
598.2000;1.4229;1.4789;
598.5000;1.4245;1.4789;
598.8000;1.4253;1.4789;
599.1000;1.4221;1.4765;
599.4000;1.4245;1.4888;
599.7000;1.4229;1.4814;
600.0000;1.4245;1.4839;
600.3000;1.4261;1.4814;
600.6000;1.4245;1.4519;
600.9000;1.4212;1.4371;
601.2000;1.4090;1.4051;
601.5000;1.3985;1.3830;
601.8000;1.3871;1.3633;
602.1000;1.3675;1.3239;
602.4000;1.3626;1.3239;
602.7000;1.3553;1.3165;
603.0000;1.3431;1.2968;
603.3000;1.3341;1.2722;
603.6000;1.3252;1.2698;
603.9000;1.3162;1.2501;
604.2000;1.3057;1.2427;
604.5000;1.2943;1.2230;
604.8000;1.2886;1.2181;
605.1000;1.2812;1.2181;
605.4000;1.2731;1.2107;
605.7000;1.2650;1.2107;
606.0000;1.2584;1.2107;
606.3000;1.2544;1.2082;
606.6000;1.2454;1.2082;
606.9000;1.2373;1.1984;
607.2000;1.2332;1.1984;
607.5000;1.2267;1.1959;
607.8000;1.2226;1.1984;
608.1000;1.2137;1.1836;
608.4000;1.2080;1.1812;
608.7000;1.2007;1.1689;
609.0000;1.2015;1.1812;
609.3000;1.1909;1.1664;
609.6000;1.1884;1.1738;
609.9000;1.1811;1.1738;
610.2000;1.1836;1.1861;
610.5000;1.1713;1.1615;
610.8000;1.1665;1.1615;
611.1000;1.1632;1.1590;
611.4000;1.1591;1.1541;
611.7000;1.1543;1.1516;
612.0000;1.1494;1.1418;
612.3000;1.1453;1.1467;
612.6000;1.1412;1.1443;
612.9000;1.1388;1.1492;
613.2000;1.1339;1.1418;
613.5000;1.1290;1.1443;
613.8000;1.1266;1.1492;
614.1000;1.1217;1.1492;
614.4000;1.1193;1.1418;
614.7000;1.1136;1.1393;
615.0000;1.1095;1.1295;
615.3000;1.1046;1.1344;
615.6000;1.1030;1.1246;
615.9000;1.0981;1.1197;
616.2000;1.0956;1.1098;
616.5000;1.0916;1.1098;
616.8000;1.0924;1.1074;
617.1000;1.0940;1.1246;
617.4000;1.0834;1.1098;
617.7000;1.0818;1.1172;
618.0000;1.0794;1.1246;
618.3000;1.0761;1.1344;
618.6000;1.0720;1.1295;
618.9000;1.0712;1.1295;
619.2000;1.0672;1.1246;
619.5000;1.0647;1.1270;
619.8000;1.0631;1.1320;
620.1000;1.0582;1.1344;
620.4000;1.0631;1.1516;
620.7000;1.0525;1.1393;
621.0000;1.0517;1.1443;
621.3000;1.0533;1.1566;
621.6000;1.0460;1.1418;
621.9000;1.0444;1.1393;
622.2000;1.0403;1.1295;
622.5000;1.0362;1.1246;
622.8000;1.0354;1.1270;
623.1000;1.0338;1.1295;
623.4000;1.0322;1.1295;
623.7000;1.0273;1.1246;
624.0000;1.0289;1.1344;
624.3000;1.0232;1.1295;
624.6000;1.0208;1.1246;
624.9000;1.0199;1.1147;
625.2000;1.0167;1.1221;
625.5000;1.0167;1.1295;
625.8000;1.0134;1.1197;
626.1000;1.0110;1.1172;
626.4000;1.0102;1.1221;
626.7000;1.0069;1.1221;
627.0000;1.0126;1.1369;
627.3000;1.0037;1.1074;
627.6000;1.0004;1.1172;
627.9000;1.0004;1.1270;
628.2000;1.0004;1.1270;
628.5000;0.9980;1.1320;
628.8000;0.9947;1.1197;
629.1000;0.9923;1.1172;
629.4000;0.9915;1.1172;
629.7000;0.9915;1.1123;
630.0000;0.9890;1.1172;
630.3000;0.9874;1.1221;
630.6000;0.9841;1.1246;
630.9000;0.9809;1.1172;
631.2000;0.9817;1.1197;
631.5000;0.9809;1.1246;
631.8000;0.9825;1.1369;
632.1000;0.9768;1.1270;
632.4000;0.9768;1.1270;
632.7000;0.9727;1.1147;
633.0000;0.9687;1.1000;
633.3000;0.9703;1.1049;
633.6000;0.9687;1.0975;
633.9000;0.9670;1.1024;
634.2000;0.9597;1.0951;
634.5000;0.9630;1.1074;
634.8000;0.9695;1.1320;
635.1000;0.9573;1.1098;
635.4000;0.9589;1.1246;
635.7000;0.9589;1.1295;
636.0000;0.9565;1.1344;
636.3000;0.9556;1.1393;
636.6000;0.9524;1.1344;
636.9000;0.9540;1.1344;
637.2000;0.9499;1.1295;
637.5000;0.9508;1.1295;
637.8000;0.9491;1.1246;
638.1000;0.9483;1.1221;
638.4000;0.9483;1.1221;
638.7000;0.9459;1.1172;
639.0000;0.9467;1.1246;
639.3000;0.9410;1.1197;
639.6000;0.9442;1.1320;
639.9000;0.9410;1.1270;
640.2000;0.9418;1.1320;
640.5000;0.9410;1.1270;
640.8000;0.9377;1.1344;
641.1000;0.9418;1.1566;
641.4000;0.9288;1.1320;
641.7000;0.9337;1.1516;
642.0000;0.9353;1.1418;
642.3000;0.9337;1.1344;
642.6000;0.9304;1.1172;
642.9000;0.9320;1.1197;
643.2000;0.9223;1.0926;
643.5000;0.9247;1.1024;
643.8000;0.9288;1.1172;
644.1000;0.9255;1.1024;
644.4000;0.9174;1.0901;
644.7000;0.9255;1.1197;
645.0000;0.9247;1.1221;
645.3000;0.9214;1.1197;
645.6000;0.9223;1.1221;
645.9000;0.9280;1.1492;
646.2000;0.9182;1.1221;
646.5000;0.9182;1.1393;
646.8000;0.9133;1.1369;
647.1000;0.9174;1.1393;
647.4000;0.9141;1.1344;
647.7000;0.9166;1.1443;
648.0000;0.9117;1.1295;
648.3000;0.9092;1.1270;
648.6000;0.9125;1.1320;
648.9000;0.9109;1.1270;
649.2000;0.9101;1.1246;
649.5000;0.9092;1.1197;
649.8000;0.9092;1.1172;
650.1000;0.9068;1.1147;
650.4000;0.9044;1.1147;
650.7000;0.9060;1.1147;
651.0000;0.9044;1.1147;
651.3000;0.9060;1.1197;
651.6000;0.9027;1.1172;
651.9000;0.9035;1.1221;
652.2000;0.9003;1.1295;
652.5000;0.9035;1.1443;
652.8000;0.9027;1.1393;
653.1000;0.8978;1.1246;
653.4000;0.9011;1.1344;
653.7000;0.8978;1.1320;
654.0000;0.9044;1.1418;
654.3000;0.8881;1.1074;
654.6000;0.8954;1.1172;
654.9000;0.8962;1.1172;
655.2000;0.8938;1.1172;
655.5000;0.8946;1.1172;
655.8000;0.8905;1.0975;
656.1000;0.8921;1.1123;
656.4000;0.8897;1.1172;
656.7000;0.8881;1.1246;
657.0000;0.8978;1.1516;
657.3000;0.8881;1.1320;
657.6000;0.8873;1.1270;
657.9000;0.8856;1.1197;
658.2000;0.8913;1.1246;
658.5000;0.8856;1.1049;
658.8000;0.8881;1.1098;
659.1000;0.8848;1.1074;
659.4000;0.8856;1.1123;
659.7000;0.8807;1.1074;
660.0000;0.8832;1.1049;
660.3000;0.8840;1.1000;
660.6000;0.8759;1.0877;
660.9000;0.8824;1.1147;
661.2000;0.8807;1.1123;
661.5000;0.8873;1.1344;
661.8000;0.8816;1.1221;
662.1000;0.8816;1.1246;
662.4000;0.8759;1.1098;
662.7000;0.8694;1.1024;
663.0000;0.8759;1.1147;
663.3000;0.8734;1.1172;
663.6000;0.8742;1.1197;
663.9000;0.8759;1.1246;
664.2000;0.8751;1.1270;
664.5000;0.8799;1.1467;
664.8000;0.8742;1.1393;
665.1000;0.8734;1.1393;
665.4000;0.8751;1.1443;
665.7000;0.8669;1.1197;
666.0000;0.8702;1.1295;
666.3000;0.8726;1.1344;
666.6000;0.8710;1.1320;
666.9000;0.8694;1.1270;
667.2000;0.8677;1.1246;
667.5000;0.8612;1.1123;
667.8000;0.8685;1.1344;
668.1000;0.8685;1.1443;
668.4000;0.8718;1.1467;
668.7000;0.8669;1.1369;
669.0000;0.8653;1.1344;
669.3000;0.8661;1.1344;
669.6000;0.8637;1.1320;
669.9000;0.8628;1.1344;
670.2000;0.8596;1.1295;
670.5000;0.8637;1.1369;
670.8000;0.8645;1.1369;
671.1000;0.8612;1.1320;
671.4000;0.8653;1.1443;
671.7000;0.8620;1.1320;
672.0000;0.8620;1.1221;
672.3000;0.8596;1.1147;
672.6000;0.8596;1.1197;
672.9000;0.8588;1.1270;
673.2000;0.8628;1.1393;
673.5000;0.8596;1.1320;
673.8000;0.8571;1.1221;
674.1000;0.8588;1.1270;
674.4000;0.8588;1.1344;
674.7000;0.8563;1.1295;
675.0000;0.8563;1.1221;
675.3000;0.8547;1.1147;
675.6000;0.8555;1.1221;
675.9000;0.8547;1.1197;
676.2000;0.8531;1.1123;
676.5000;0.8539;1.1197;
676.8000;0.8506;1.1098;
677.1000;0.8523;1.1172;
677.4000;0.8514;1.1172;
677.7000;0.8514;1.1197;
678.0000;0.8539;1.1270;
678.3000;0.8506;1.1197;
678.6000;0.8498;1.1270;
678.9000;0.8514;1.1197;
679.2000;0.8474;1.1123;
679.5000;0.8490;1.1123;
679.8000;0.8514;1.1074;
680.1000;0.8482;1.1049;
680.4000;0.8482;1.1197;
680.7000;0.8474;1.1344;
681.0000;0.8474;1.1221;
681.3000;0.8490;1.1246;
681.6000;0.8457;1.1197;
681.9000;0.8466;1.1246;
682.2000;0.8449;1.1172;
682.5000;0.8449;1.1172;
682.8000;0.8466;1.1221;
683.1000;0.8425;1.1147;
683.4000;0.8417;1.1098;
683.7000;0.8425;1.1147;
684.0000;0.8417;1.1147;
684.3000;0.8441;1.1246;
684.6000;0.8433;1.1221;
684.9000;0.8425;1.1172;
685.2000;0.8417;1.1147;
685.5000;0.8433;1.1147;
685.8000;0.8417;1.1098;
686.1000;0.8368;1.0975;
686.4000;0.8392;1.1221;
686.7000;0.8392;1.1270;
687.0000;0.8425;1.1369;
687.3000;0.8400;1.1295;
687.6000;0.8392;1.1221;
687.9000;0.8384;1.1123;
688.2000;0.8392;1.1197;
688.5000;0.8384;1.1246;
688.8000;0.8376;1.1270;
689.1000;0.8392;1.1295;
689.4000;0.8368;1.1221;
689.7000;0.8384;1.1295;
690.0000;0.8376;1.1393;
690.3000;0.8335;1.1320;
690.6000;0.8360;1.1393;
690.9000;0.8376;1.1369;
691.2000;0.8352;1.1295;
691.5000;0.8360;1.1344;
691.8000;0.8360;1.1295;
692.1000;0.8352;1.1320;
692.4000;0.8327;1.1369;
692.7000;0.8327;1.1492;
693.0000;0.8360;1.1590;
693.3000;0.8319;1.1615;
693.6000;0.8335;1.1566;
693.9000;0.8384;1.1664;
694.2000;0.8368;1.1541;
694.5000;0.8319;1.1467;
694.8000;0.8327;1.1467;
695.1000;0.8319;1.1369;
695.4000;0.8352;1.1443;
695.7000;0.8303;1.1246;
696.0000;0.8295;1.1320;
696.3000;0.8303;1.1344;
696.6000;0.8238;1.1123;
696.9000;0.8287;1.1221;
697.2000;0.8287;1.1221;
697.5000;0.8295;1.1295;
697.8000;0.8287;1.1295;
698.1000;0.8278;1.1320;
698.4000;0.8270;1.1443;
698.7000;0.8287;1.1492;
699.0000;0.8278;1.1467;
699.3000;0.8270;1.1295;
699.6000;0.8262;1.1369;
699.9000;0.8270;1.1344;
700.2000;0.8287;1.1393;
700.5000;0.8270;1.1320;
700.8000;0.8246;1.1369;
701.1000;0.8303;1.1516;
701.4000;0.8262;1.1369;
701.7000;0.8246;1.1246;
702.0000;0.8254;1.1172;
702.3000;0.8246;1.1197;
702.6000;0.8254;1.1270;
702.9000;0.8238;1.1098;
703.2000;0.8205;1.1074;
703.5000;0.8230;1.1098;
703.8000;0.8230;1.1147;
704.1000;0.8254;1.1197;
704.4000;0.8238;1.1172;
704.7000;0.8213;1.1123;
705.0000;0.8230;1.1197;
705.3000;0.8221;1.1197;
705.6000;0.8213;1.1295;
705.9000;0.8221;1.1320;
706.2000;0.8221;1.1320;
706.5000;0.8197;1.1221;
706.8000;0.8197;1.1246;
707.1000;0.8148;1.1147;
707.4000;0.8189;1.1221;
707.7000;0.8205;1.1320;
708.0000;0.8205;1.1320;
708.3000;0.8181;1.1295;
708.6000;0.8189;1.1369;
708.9000;0.8181;1.1369;
709.2000;0.8173;1.1344;
709.5000;0.8164;1.1344;
709.8000;0.8124;1.1221;
710.1000;0.8181;1.1443;
710.4000;0.8164;1.1369;
710.7000;0.8156;1.1270;
711.0000;0.8173;1.1369;
711.3000;0.8156;1.1197;
711.6000;0.8156;1.1172;
711.9000;0.8164;1.1197;
712.2000;0.8156;1.1295;
712.5000;0.8173;1.1295;
712.8000;0.8173;1.1270;
713.1000;0.8156;1.1172;
713.4000;0.8164;1.1172;
713.7000;0.8140;1.1049;
714.0000;0.8156;1.1098;
714.3000;0.8140;1.1049;
714.6000;0.8156;1.1074;
714.9000;0.8116;1.1049;
715.2000;0.8140;1.1172;
715.5000;0.8132;1.1197;
715.8000;0.8132;1.1172;
716.1000;0.8075;1.1000;
716.4000;0.8132;1.1123;
716.7000;0.8156;1.1270;
717.0000;0.8099;1.1147;
717.3000;0.8124;1.1246;
717.6000;0.8132;1.1295;
717.9000;0.8197;1.1516;
718.2000;0.8124;1.1344;
718.5000;0.8124;1.1369;
718.8000;0.8132;1.1369;
719.1000;0.8116;1.1393;
719.4000;0.8124;1.1467;
719.7000;0.8132;1.1443;
720.0000;0.8116;1.1418;
720.3000;0.8124;1.1516;
720.6000;0.8124;1.1615;
720.9000;0.8124;1.1640;
721.2000;0.8099;1.1640;
721.5000;0.8099;1.1664;
721.8000;0.8107;1.1590;
722.1000;0.8083;1.1492;
722.4000;0.8116;1.1492;
722.7000;0.8099;1.1516;
723.0000;0.8107;1.1541;
723.3000;0.8116;1.1566;
723.6000;0.8116;1.1541;
723.9000;0.8083;1.1590;
724.2000;0.8075;1.1640;
724.5000;0.8091;1.1615;
724.8000;0.8091;1.1541;
725.1000;0.8075;1.1516;
725.4000;0.8075;1.1516;
725.7000;0.8116;1.1541;
726.0000;0.8026;1.1320;
726.3000;0.8075;1.1492;
726.6000;0.8075;1.1492;
726.9000;0.8083;1.1418;
727.2000;0.8075;1.1393;
727.5000;0.8067;1.1344;
727.8000;0.8059;1.1344;
728.1000;0.8067;1.1418;
728.4000;0.8083;1.1467;
728.7000;0.8042;1.1344;
729.0000;0.8050;1.1418;
729.3000;0.8083;1.1566;
729.6000;0.8042;1.1516;
729.9000;0.8050;1.1516;
730.2000;0.8042;1.1590;
730.5000;0.8042;1.1689;
730.8000;0.8026;1.1590;
731.1000;0.8050;1.1738;
731.4000;0.8042;1.1664;
731.7000;0.8116;1.1787;
732.0000;0.8042;1.1541;
732.3000;0.8091;1.1664;
732.6000;0.8034;1.1566;
732.9000;0.8034;1.1516;
733.2000;0.8067;1.1566;
733.5000;0.8042;1.1492;
733.8000;0.8042;1.1492;
734.1000;0.8026;1.1369;
734.4000;0.8034;1.1369;
734.7000;0.8034;1.1369;
735.0000;0.8034;1.1418;
735.3000;0.7953;1.1197;
735.6000;0.8010;1.1295;
735.9000;0.8034;1.1418;
736.2000;0.8026;1.1393;
736.5000;0.8018;1.1393;
736.8000;0.8026;1.1369;
737.1000;0.8026;1.1369;
737.4000;0.8050;1.1443;
737.7000;0.8026;1.1492;
738.0000;0.8010;1.1566;
738.3000;0.7993;1.1566;
738.6000;0.8010;1.1615;
738.9000;0.8002;1.1541;
739.2000;0.8067;1.1615;
739.5000;0.8002;1.1369;
739.8000;0.8018;1.1320;
740.1000;0.8002;1.1270;
740.4000;0.8002;1.1320;
740.7000;0.7969;1.1270;
741.0000;0.8091;1.1590;
741.3000;0.7993;1.1295;
741.6000;0.8018;1.1369;
741.9000;0.7993;1.1221;
742.2000;0.8010;1.1270;
742.5000;0.7985;1.1221;
742.8000;0.7961;1.1221;
743.1000;0.7977;1.1270;
743.4000;0.7985;1.1295;
743.7000;0.8010;1.1344;
744.0000;0.7993;1.1320;
744.3000;0.7985;1.1320;
744.6000;0.7977;1.1320;
744.9000;0.7993;1.1418;
745.2000;0.7985;1.1344;
745.5000;0.7969;1.1443;
745.8000;0.7977;1.1467;
746.1000;0.7977;1.1516;
746.4000;0.7961;1.1369;
746.7000;0.8034;1.1566;
747.0000;0.7961;1.1344;
747.3000;0.7969;1.1418;
747.6000;0.7920;1.1418;
747.9000;0.8010;1.1664;
748.2000;0.7977;1.1541;
748.5000;0.7977;1.1590;
748.8000;0.8042;1.1664;
749.1000;0.7969;1.1393;
749.4000;0.7985;1.1418;
749.7000;0.7977;1.1393;
750.0000;0.7928;1.1320;
750.3000;0.7945;1.1393;
750.6000;0.7977;1.1467;
750.9000;0.7961;1.1492;
751.2000;0.7937;1.1393;
751.5000;0.7953;1.1467;
751.8000;0.7969;1.1467;
752.1000;0.7953;1.1369;
752.4000;0.7920;1.1393;
752.7000;0.7985;1.1541;
753.0000;0.7953;1.1467;
753.3000;0.7953;1.1418;
753.6000;0.7928;1.1369;
753.9000;0.7928;1.1516;
754.2000;0.7937;1.1541;
754.5000;0.7945;1.1393;
754.8000;0.7904;1.1246;
755.1000;0.7945;1.1467;
755.4000;0.7937;1.1443;
755.7000;0.7937;1.1393;
756.0000;0.7928;1.1320;
756.3000;0.7945;1.1369;
756.6000;0.7937;1.1320;
756.9000;0.7945;1.1270;
757.2000;0.7928;1.1246;
757.5000;0.7912;1.1197;
757.8000;0.7928;1.1197;
758.1000;0.7928;1.1147;
758.4000;0.7928;1.1221;
758.7000;0.7839;1.1024;
759.0000;0.7937;1.1221;
759.3000;0.7961;1.1270;
759.6000;0.7937;1.1147;
759.9000;0.7920;1.1197;
760.2000;0.7937;1.1270;
760.5000;0.7904;1.1320;
760.8000;0.7904;1.1369;
761.1000;0.7920;1.1393;
761.4000;0.7863;1.1393;
761.7000;0.7937;1.1516;
762.0000;0.7912;1.1369;
762.3000;0.7912;1.1295;
762.6000;0.7904;1.1270;
762.9000;0.7912;1.1246;
763.2000;0.7888;1.1172;
763.5000;0.7904;1.1221;
763.8000;0.7904;1.1246;
764.1000;0.7896;1.1246;
764.4000;0.7904;1.1344;
764.7000;0.7888;1.1344;
765.0000;0.7904;1.1344;
765.3000;0.7904;1.1344;
765.6000;0.7888;1.1270;
765.9000;0.7880;1.1197;
766.2000;0.7888;1.1270;
766.5000;0.7888;1.1270;
766.8000;0.7896;1.1344;
767.1000;0.7888;1.1320;
767.4000;0.7896;1.1369;
767.7000;0.7904;1.1418;
768.0000;0.7871;1.1393;
768.3000;0.7896;1.1393;
768.6000;0.7912;1.1516;
768.9000;0.7920;1.1516;
769.2000;0.7880;1.1566;
769.5000;0.7912;1.1640;
769.8000;0.7888;1.1566;
770.1000;0.7863;1.1492;
770.4000;0.7904;1.1492;
770.7000;0.7904;1.1541;
771.0000;0.7896;1.1516;
771.3000;0.7888;1.1516;
771.6000;0.7888;1.1467;
771.9000;0.7888;1.1566;
772.2000;0.7920;1.1590;
772.5000;0.7880;1.1516;
772.8000;0.7880;1.1516;
773.1000;0.7831;1.1418;
773.4000;0.7888;1.1516;
773.7000;0.7880;1.1393;
774.0000;0.7839;1.1369;
774.3000;0.7888;1.1418;
774.6000;0.7847;1.1246;
774.9000;0.7863;1.1320;
775.2000;0.7896;1.1320;
775.5000;0.7896;1.1320;
775.8000;0.7855;1.1344;
776.1000;0.7855;1.1320;
776.4000;0.7888;1.1295;
776.7000;0.7880;1.1369;
777.0000;0.7880;1.1418;
777.3000;0.7888;1.1467;
777.6000;0.7928;1.1492;
777.9000;0.7880;1.1369;
778.2000;0.7871;1.1393;
778.5000;0.7863;1.1418;
778.8000;0.7880;1.1467;
779.1000;0.7831;1.1369;
779.4000;0.7863;1.1443;
779.7000;0.7871;1.1467;
780.0000;0.7847;1.1344;
780.3000;0.7871;1.1246;
780.6000;0.7880;1.1320;
780.9000;0.7855;1.1295;
781.2000;0.7855;1.1246;
781.5000;0.7871;1.1270;
781.8000;0.7855;1.1221;
782.1000;0.7863;1.1320;
782.4000;0.7855;1.1295;
782.7000;0.7839;1.1270;
783.0000;0.7847;1.1418;
783.3000;0.7912;1.1664;
783.6000;0.7855;1.1566;
783.9000;0.7831;1.1516;
784.2000;0.7855;1.1492;
784.5000;0.7847;1.1516;
784.8000;0.7904;1.1640;
785.1000;0.7839;1.1467;
785.4000;0.7839;1.1492;
785.7000;0.7839;1.1492;
786.0000;0.7855;1.1516;
786.3000;0.7871;1.1492;
786.6000;0.7847;1.1443;
786.9000;0.7839;1.1393;
787.2000;0.7839;1.1393;
787.5000;0.7839;1.1369;
787.8000;0.7847;1.1320;
788.1000;0.7749;1.1074;
788.4000;0.7847;1.1246;
788.7000;0.7839;1.1197;
789.0000;0.7831;1.1270;
789.3000;0.7774;1.1246;
789.6000;0.7823;1.1467;
789.9000;0.7798;1.1516;
790.2000;0.7798;1.1516;
790.5000;0.7823;1.1541;
790.8000;0.7839;1.1541;
791.1000;0.7814;1.1418;
791.4000;0.7814;1.1418;
791.7000;0.7814;1.1393;
792.0000;0.7806;1.1295;
792.3000;0.7831;1.1369;
792.6000;0.7839;1.1443;
792.9000;0.7814;1.1443;
793.2000;0.7814;1.1492;
793.5000;0.7839;1.1590;
793.8000;0.7831;1.1516;
794.1000;0.7814;1.1541;
794.4000;0.7814;1.1516;
794.7000;0.7814;1.1590;
795.0000;0.7823;1.1689;
795.3000;0.7814;1.1689;
795.6000;0.7823;1.1738;
795.9000;0.7806;1.1640;
796.2000;0.7757;1.1443;
796.5000;0.7823;1.1615;
796.8000;0.7839;1.1640;
797.1000;0.7798;1.1516;
797.4000;0.7814;1.1615;
797.7000;0.7831;1.1713;
798.0000;0.7814;1.1689;
798.3000;0.7831;1.1787;
798.6000;0.7806;1.1763;
798.9000;0.7806;1.1713;
799.2000;0.7790;1.1713;
799.5000;0.7806;1.1664;
799.8000;0.7855;1.1738;
800.1000;0.7823;1.1664;
800.4000;0.7814;1.1541;
800.7000;0.7798;1.1566;
801.0000;0.7806;1.1566;
801.3000;0.7814;1.1566;
801.6000;0.7814;1.1640;
801.9000;0.7814;1.1615;
802.2000;0.7806;1.1590;
802.5000;0.7814;1.1640;
802.8000;0.7798;1.1590;
803.1000;0.7790;1.1492;
803.4000;0.7790;1.1467;
803.7000;0.7806;1.1516;
804.0000;0.7831;1.1590;
804.3000;0.7831;1.1664;
804.6000;0.7798;1.1615;
804.9000;0.7790;1.1664;
805.2000;0.7798;1.1763;
805.5000;0.7806;1.1787;
805.8000;0.7798;1.1812;
806.1000;0.7831;1.1886;
806.4000;0.7806;1.1861;
806.7000;0.7790;1.1713;
807.0000;0.7798;1.1640;
807.3000;0.7831;1.1738;
807.6000;0.7823;1.1689;
807.9000;0.7823;1.1615;
808.2000;0.7831;1.1738;
808.5000;0.7782;1.1615;
808.8000;0.7806;1.1713;
809.1000;0.7790;1.1664;
809.4000;0.7806;1.1689;
809.7000;0.7798;1.1664;
810.0000;0.7806;1.1713;
810.3000;0.7790;1.1590;
810.6000;0.7798;1.1516;
810.9000;0.7766;1.1492;
811.2000;0.7790;1.1541;
811.5000;0.7782;1.1566;
811.8000;0.7806;1.1640;
812.1000;0.7774;1.1566;
812.4000;0.7782;1.1640;
812.7000;0.7766;1.1664;
813.0000;0.7782;1.1738;
813.3000;0.7814;1.1787;
813.6000;0.7798;1.1713;
813.9000;0.7798;1.1640;
814.2000;0.7855;1.1787;
814.5000;0.7782;1.1590;
814.8000;0.7774;1.1615;
815.1000;0.7774;1.1689;
815.4000;0.7774;1.1713;
815.7000;0.7774;1.1640;
816.0000;0.7798;1.1664;
816.3000;0.7782;1.1640;
816.6000;0.7790;1.1640;
816.9000;0.7790;1.1590;
817.2000;0.7782;1.1664;
817.5000;0.7766;1.1738;
817.8000;0.7766;1.1738;
818.1000;0.7782;1.1713;
818.4000;0.7782;1.1689;
818.7000;0.7766;1.1664;
819.0000;0.7766;1.1541;
819.3000;0.7774;1.1590;
819.6000;0.7782;1.1640;
819.9000;0.7774;1.1615;
820.2000;0.7741;1.1541;
820.5000;0.7766;1.1566;
820.8000;0.7774;1.1541;
821.1000;0.7774;1.1590;
821.4000;0.7774;1.1664;
821.7000;0.7774;1.1664;
822.0000;0.7774;1.1689;
822.3000;0.7774;1.1640;
822.6000;0.7757;1.1566;
822.9000;0.7757;1.1443;
823.2000;0.7814;1.1492;
823.5000;0.7782;1.1320;
823.8000;0.7855;1.1541;
824.1000;0.7766;1.1320;
824.4000;0.7774;1.1320;
824.7000;0.7774;1.1369;
825.0000;0.7757;1.1369;
825.3000;0.7741;1.1369;
825.6000;0.7749;1.1369;
825.9000;0.7766;1.1295;
826.2000;0.7733;1.1295;
826.5000;0.7749;1.1369;
826.8000;0.7782;1.1516;
827.1000;0.7774;1.1615;
827.4000;0.7774;1.1590;
827.7000;0.7774;1.1566;
828.0000;0.7774;1.1590;
828.3000;0.7700;1.1516;
828.6000;0.7790;1.1713;
828.9000;0.7757;1.1664;
829.2000;0.7782;1.1812;
829.5000;0.7766;1.1763;
829.8000;0.7749;1.1713;
830.1000;0.7766;1.1713;
830.4000;0.7757;1.1713;
830.7000;0.7757;1.1738;
831.0000;0.7766;1.1787;
831.3000;0.7717;1.1664;
831.6000;0.7749;1.1664;
831.9000;0.7757;1.1713;
832.2000;0.7757;1.1738;
832.5000;0.7757;1.1738;
832.8000;0.7774;1.1664;
833.1000;0.7757;1.1689;
833.4000;0.7749;1.1664;
833.7000;0.7757;1.1713;
834.0000;0.7757;1.1713;
834.3000;0.7733;1.1640;
834.6000;0.7757;1.1664;
834.9000;0.7749;1.1615;
835.2000;0.7766;1.1664;
835.5000;0.7741;1.1590;
835.8000;0.7757;1.1492;
836.1000;0.7749;1.1516;
836.4000;0.7741;1.1393;
836.7000;0.7733;1.1320;
837.0000;0.7643;1.1074;
837.3000;0.7766;1.1320;
837.6000;0.7741;1.1344;
837.9000;0.7733;1.1492;
838.2000;0.7741;1.1516;
838.5000;0.7741;1.1516;
838.8000;0.7749;1.1418;
839.1000;0.7733;1.1418;
839.4000;0.7749;1.1393;
839.7000;0.7757;1.1393;
840.0000;0.7757;1.1393;
840.3000;0.7749;1.1443;
840.6000;0.7749;1.1344;
840.9000;0.7741;1.1295;
841.2000;0.7766;1.1393;
841.5000;0.7749;1.1344;
841.8000;0.7733;1.1393;
842.1000;0.7749;1.1516;
842.4000;0.7757;1.1615;
842.7000;0.7717;1.1516;
843.0000;0.7741;1.1590;
843.3000;0.7741;1.1590;
843.6000;0.7684;1.1443;
843.9000;0.7741;1.1615;
844.2000;0.7757;1.1615;
844.5000;0.7741;1.1615;
844.8000;0.7676;1.1393;
845.1000;0.7741;1.1467;
845.4000;0.7757;1.1443;
845.7000;0.7774;1.1443;
846.0000;0.7741;1.1320;
846.3000;0.7749;1.1270;
846.6000;0.7741;1.1295;
846.9000;0.7733;1.1246;
847.2000;0.7741;1.1295;
847.5000;0.7733;1.1369;
847.8000;0.7733;1.1344;
848.1000;0.7733;1.1369;
848.4000;0.7725;1.1344;
848.7000;0.7717;1.1393;
849.0000;0.7749;1.1443;
849.3000;0.7733;1.1393;
849.6000;0.7676;1.1270;
849.9000;0.7774;1.1467;
850.2000;0.7725;1.1418;
850.5000;0.7741;1.1344;
850.8000;0.7733;1.1393;
851.1000;0.7717;1.1467;
851.4000;0.7749;1.1590;
851.7000;0.7700;1.1516;
852.0000;0.7741;1.1738;
852.3000;0.7709;1.1738;
852.6000;0.7676;1.1689;
852.9000;0.7733;1.1861;
853.2000;0.7717;1.1886;
853.5000;0.7733;1.1959;
853.8000;0.7725;1.1935;
854.1000;0.7741;1.1886;
854.4000;0.7709;1.1787;
854.7000;0.7725;1.1812;
855.0000;0.7725;1.1836;
855.3000;0.7757;1.1836;
855.6000;0.7741;1.1812;
855.9000;0.7717;1.1787;
856.2000;0.7725;1.1763;
856.5000;0.7757;1.1763;
856.8000;0.7717;1.1713;
857.1000;0.7725;1.1689;
857.4000;0.7717;1.1689;
857.7000;0.7717;1.1640;
858.0000;0.7717;1.1640;
858.3000;0.7766;1.1812;
858.6000;0.7725;1.1738;
858.9000;0.7709;1.1763;
859.2000;0.7749;1.1836;
859.5000;0.7733;1.1812;
859.8000;0.7774;1.1886;
860.1000;0.7733;1.1664;
860.4000;0.7733;1.1640;
860.7000;0.7717;1.1812;
861.0000;0.7709;1.1787;
861.3000;0.7709;1.1738;
861.6000;0.7725;1.1763;
861.9000;0.7733;1.1812;
862.2000;0.7725;1.1713;
862.5000;0.7709;1.1738;
862.8000;0.7725;1.1738;
863.1000;0.7766;1.1812;
863.4000;0.7709;1.1738;
863.7000;0.7709;1.1812;
864.0000;0.7709;1.1861;
864.3000;0.7725;1.1910;
864.6000;0.7717;1.1738;
864.9000;0.7700;1.1713;
865.2000;0.7700;1.1713;
865.5000;0.7733;1.1763;
865.8000;0.7725;1.1689;
866.1000;0.7733;1.1689;
866.4000;0.7709;1.1615;
866.7000;0.7700;1.1590;
867.0000;0.7717;1.1615;
867.3000;0.7709;1.1566;
867.6000;0.7725;1.1664;
867.9000;0.7700;1.1615;
868.2000;0.7749;1.1689;
868.5000;0.7733;1.1738;
868.8000;0.7709;1.1640;
869.1000;0.7717;1.1640;
869.4000;0.7709;1.1640;
869.7000;0.7749;1.1689;
870.0000;0.7700;1.1615;
870.3000;0.7709;1.1516;
870.6000;0.7717;1.1516;
870.9000;0.7717;1.1541;
871.2000;0.7700;1.1492;
871.5000;0.7627;1.1320;
871.8000;0.7700;1.1541;
872.1000;0.7717;1.1640;
872.4000;0.7700;1.1492;
872.7000;0.7709;1.1492;
873.0000;0.7700;1.1516;
873.3000;0.7700;1.1541;
873.6000;0.7717;1.1640;
873.9000;0.7692;1.1640;
874.2000;0.7700;1.1713;
874.5000;0.7725;1.1738;
874.8000;0.7733;1.1812;
875.1000;0.7709;1.1713;
875.4000;0.7709;1.1763;
875.7000;0.7733;1.1836;
876.0000;0.7709;1.1787;
876.3000;0.7700;1.1738;
876.6000;0.7692;1.1738;
876.9000;0.7700;1.1713;
877.2000;0.7684;1.1615;
877.5000;0.7652;1.1566;
877.8000;0.7709;1.1738;
878.1000;0.7700;1.1738;
878.4000;0.7717;1.1738;
878.7000;0.7717;1.1664;
879.0000;0.7692;1.1615;
879.3000;0.7709;1.1615;
879.6000;0.7684;1.1664;
879.9000;0.7709;1.1812;
880.2000;0.7717;1.1787;
880.5000;0.7717;1.1812;
880.8000;0.7717;1.1763;
881.1000;0.7700;1.1738;
881.4000;0.7692;1.1763;
881.7000;0.7766;1.1984;
882.0000;0.7668;1.1787;
882.3000;0.7717;1.1861;
882.6000;0.7700;1.1836;
882.9000;0.7700;1.1787;
883.2000;0.7692;1.1763;
883.5000;0.7717;1.1763;
883.8000;0.7668;1.1664;
884.1000;0.7709;1.1836;
884.4000;0.7709;1.1861;
884.7000;0.7700;1.1836;
885.0000;0.7700;1.1836;
885.3000;0.7692;1.1836;
885.6000;0.7692;1.1812;
885.9000;0.7700;1.1812;
886.2000;0.7717;1.1836;
886.5000;0.7692;1.1787;
886.8000;0.7635;1.1689;
887.1000;0.7676;1.1738;
887.4000;0.7684;1.1787;
887.7000;0.7676;1.1763;
888.0000;0.7684;1.1836;
888.3000;0.7700;1.1910;
888.6000;0.7676;1.1836;
888.9000;0.7709;1.1861;
889.2000;0.7668;1.1763;
889.5000;0.7684;1.1713;
889.8000;0.7709;1.1787;
890.1000;0.7709;1.1787;
890.4000;0.7700;1.1763;
890.7000;0.7692;1.1812;
891.0000;0.7692;1.1787;
891.3000;0.7700;1.1763;
891.6000;0.7709;1.1812;
891.9000;0.7725;1.1763;
892.2000;0.7709;1.1738;
892.5000;0.7700;1.1689;
892.8000;0.7692;1.1664;
893.1000;0.7692;1.1640;
893.4000;0.7709;1.1738;
893.7000;0.7668;1.1787;
894.0000;0.7733;1.1861;
894.3000;0.7692;1.1738;
894.6000;0.7652;1.1615;
894.9000;0.7717;1.1886;
895.2000;0.7692;1.1984;
895.5000;0.7700;1.1910;
895.8000;0.7700;1.1812;
896.1000;0.7741;1.1935;
896.4000;0.7684;1.1763;
896.7000;0.7684;1.1787;
897.0000;0.7733;1.1910;
897.3000;0.7717;1.1812;
897.6000;0.7684;1.1713;
897.9000;0.7635;1.1590;
898.2000;0.7717;1.1886;
898.5000;0.7668;1.1738;
898.8000;0.7684;1.1787;
899.1000;0.7700;1.1787;
899.4000;0.7692;1.1787;
899.7000;0.7684;1.1738;
900.0000;0.7700;1.1763;
900.3000;0.7700;1.1812;
900.6000;0.7652;1.1713;
900.9000;0.7692;1.1738;
901.2000;0.7692;1.1713;
901.5000;0.7660;1.1590;
901.8000;0.7660;1.1516;
902.1000;0.7725;1.1713;
902.4000;0.7684;1.1689;
902.7000;0.7709;1.1763;
903.0000;0.7692;1.1713;
903.3000;0.7627;1.1516;
903.6000;0.7684;1.1787;
903.9000;0.7725;1.1910;
904.2000;0.7700;1.1886;
904.5000;0.7700;1.1886;
904.8000;0.7643;1.1861;
905.1000;0.7676;1.1910;
905.4000;0.7709;1.1984;
905.7000;0.7684;1.1836;
906.0000;0.7684;1.1861;
906.3000;0.7733;1.2009;
906.6000;0.7692;1.1984;
906.9000;0.7676;1.1959;
907.2000;0.7660;1.1959;
907.5000;0.7676;1.1984;
907.8000;0.7676;1.2009;
908.1000;0.7668;1.1935;
908.4000;0.7643;1.1836;
908.7000;0.7684;1.1886;
909.0000;0.7668;1.1787;
909.3000;0.7660;1.1738;
909.6000;0.7692;1.1738;
909.9000;0.7668;1.1689;
910.2000;0.7660;1.1640;
910.5000;0.7676;1.1664;
910.8000;0.7676;1.1615;
911.1000;0.7684;1.1713;
911.4000;0.7676;1.1812;
911.7000;0.7692;1.1812;
912.0000;0.7676;1.1836;
912.3000;0.7676;1.1886;
912.6000;0.7684;1.1861;
912.9000;0.7684;1.1910;
913.2000;0.7700;1.1861;
913.5000;0.7700;1.1787;
913.8000;0.7684;1.1713;
914.1000;0.7700;1.1763;
914.4000;0.7684;1.1664;
914.7000;0.7717;1.1763;
915.0000;0.7700;1.1664;
915.3000;0.7692;1.1615;
915.6000;0.7684;1.1713;
915.9000;0.7692;1.1664;
916.2000;0.7660;1.1615;
916.5000;0.7684;1.1640;
916.8000;0.7676;1.1713;
917.1000;0.7684;1.1738;
917.4000;0.7676;1.1738;
917.7000;0.7692;1.1812;
918.0000;0.7709;1.1812;
918.3000;0.7700;1.1787;
918.6000;0.7700;1.1836;
918.9000;0.7676;1.1812;
919.2000;0.7700;1.1886;
919.5000;0.7684;1.1836;
919.8000;0.7725;1.1910;
920.1000;0.7709;1.1836;
920.4000;0.7676;1.1738;
920.7000;0.7652;1.1689;
921.0000;0.7660;1.1763;
921.3000;0.7684;1.1836;
921.6000;0.7652;1.1713;
921.9000;0.7676;1.1713;
922.2000;0.7676;1.1787;
922.5000;0.7660;1.1689;
922.8000;0.7611;1.1467;
923.1000;0.7692;1.1664;
923.4000;0.7684;1.1640;
923.7000;0.7684;1.1640;
924.0000;0.7668;1.1640;
924.3000;0.7692;1.1713;
924.6000;0.7692;1.1763;
924.9000;0.7692;1.1787;
925.2000;0.7692;1.1836;
925.5000;0.7692;1.1910;
925.8000;0.7684;1.1935;
926.1000;0.7676;1.1910;
926.4000;0.7643;1.1886;
926.7000;0.7652;1.1886;
927.0000;0.7676;1.1959;
927.3000;0.7692;1.2033;
927.6000;0.7643;1.1886;
927.9000;0.7709;1.1959;
928.2000;0.7717;1.1886;
928.5000;0.7709;1.1886;
928.8000;0.7692;1.1836;
929.1000;0.7676;1.1812;
929.4000;0.7684;1.1861;
929.7000;0.7692;1.1787;
930.0000;0.7692;1.1738;
930.3000;0.7676;1.1812;
930.6000;0.7660;1.1787;
930.9000;0.7692;1.1763;
931.2000;0.7668;1.1763;
931.5000;0.7676;1.1713;
931.8000;0.7668;1.1713;
932.1000;0.7692;1.1763;
932.4000;0.7668;1.1738;
932.7000;0.7660;1.1763;
933.0000;0.7660;1.1763;
933.3000;0.7668;1.1787;
933.6000;0.7660;1.1836;
933.9000;0.7668;1.1886;
934.2000;0.7676;1.1935;
934.5000;0.7652;1.1910;
934.8000;0.7676;1.1984;
935.1000;0.7652;1.1861;
935.4000;0.7627;1.1861;
935.7000;0.7643;1.1886;
936.0000;0.7692;1.1984;
936.3000;0.7668;1.1984;
936.6000;0.7611;1.1836;
936.9000;0.7684;1.1812;
937.2000;0.7660;1.1713;
937.5000;0.7676;1.1689;
937.8000;0.7652;1.1812;
938.1000;0.7660;1.1861;
938.4000;0.7660;1.1861;
938.7000;0.7611;1.1763;
939.0000;0.7603;1.1640;
939.3000;0.7668;1.1763;
939.6000;0.7643;1.1615;
939.9000;0.7676;1.1787;
940.2000;0.7717;1.1861;
940.5000;0.7676;1.1689;
940.8000;0.7676;1.1689;
941.1000;0.7709;1.1738;
941.4000;0.7668;1.1689;
941.7000;0.7668;1.1738;
942.0000;0.7635;1.1713;
942.3000;0.7652;1.1763;
942.6000;0.7668;1.1910;
942.9000;0.7676;1.1861;
943.2000;0.7676;1.1886;
943.5000;0.7668;1.1836;
943.8000;0.7668;1.1861;
944.1000;0.7684;1.1886;
944.4000;0.7717;1.2009;
944.7000;0.7676;1.2009;
945.0000;0.7668;1.2107;
945.3000;0.7660;1.2107;
945.6000;0.7652;1.2082;
945.9000;0.7660;1.2107;
946.2000;0.7627;1.1935;
946.5000;0.7652;1.1984;
946.8000;0.7652;1.1984;
947.1000;0.7668;1.1959;
947.4000;0.7652;1.1910;
947.7000;0.7660;1.1738;
948.0000;0.7676;1.1763;
948.3000;0.7668;1.1763;
948.6000;0.7660;1.1689;
948.9000;0.7676;1.1738;
949.2000;0.7692;1.1738;
949.5000;0.7676;1.1763;
949.8000;0.7676;1.1713;
950.1000;0.7684;1.1787;
950.4000;0.7676;1.1787;
950.7000;0.7684;1.1738;
951.0000;0.7700;1.1787;
951.3000;0.7611;1.1640;
951.6000;0.7668;1.1763;
951.9000;0.7676;1.1738;
952.2000;0.7660;1.1713;
952.5000;0.7660;1.1738;
952.8000;0.7668;1.1836;
953.1000;0.7684;1.1861;
953.4000;0.7668;1.1836;
953.7000;0.7676;1.1787;
954.0000;0.7676;1.1787;
954.3000;0.7684;1.1763;
954.6000;0.7668;1.1787;
954.9000;0.7627;1.1689;
955.2000;0.7652;1.1689;
955.5000;0.7700;1.1664;
955.8000;0.7692;1.1640;
956.1000;0.7668;1.1689;
956.4000;0.7660;1.1615;
956.7000;0.7660;1.1615;
957.0000;0.7652;1.1713;
957.3000;0.7660;1.1738;
957.6000;0.7660;1.1713;
957.9000;0.7660;1.1664;
958.2000;0.7660;1.1590;
958.5000;0.7668;1.1590;
958.8000;0.7668;1.1566;
959.1000;0.7652;1.1640;
959.4000;0.7668;1.1615;
959.7000;0.7660;1.1615;
960.0000;0.7668;1.1541;
960.3000;0.7668;1.1640;
960.6000;0.7643;1.1640;
960.9000;0.7660;1.1738;
961.2000;0.7660;1.1812;
961.5000;0.7652;1.1886;
961.8000;0.7660;1.1812;
962.1000;0.7676;1.1787;
962.4000;0.7652;1.1713;
962.7000;0.7668;1.1713;
963.0000;0.7676;1.1812;
963.3000;0.7660;1.1738;
963.6000;0.7668;1.1689;
963.9000;0.7676;1.1689;
964.2000;0.7643;1.1713;
964.5000;0.7635;1.1713;
964.8000;0.7660;1.1886;
965.1000;0.7643;1.1886;
965.4000;0.7652;1.1861;
965.7000;0.7652;1.1812;
966.0000;0.7717;1.1959;
966.3000;0.7717;1.1959;
966.6000;0.7668;1.1812;
966.9000;0.7668;1.1836;
967.2000;0.7643;1.1959;
967.5000;0.7603;1.1787;
967.8000;0.7717;1.2132;
968.1000;0.7643;1.2009;
968.4000;0.7652;1.2082;
968.7000;0.7635;1.2107;
969.0000;0.7643;1.2033;
969.3000;0.7627;1.1886;
969.6000;0.7643;1.1861;
969.9000;0.7627;1.1836;
970.2000;0.7643;1.1959;
970.5000;0.7603;1.1812;
970.8000;0.7652;1.1984;
971.1000;0.7643;1.2058;
971.4000;0.7635;1.2033;
971.7000;0.7643;1.2082;
972.0000;0.7660;1.2033;
972.3000;0.7668;1.1935;
972.6000;0.7643;1.1910;
972.9000;0.7652;1.1984;
973.2000;0.7660;1.2107;
973.5000;0.7660;1.2132;
973.8000;0.7660;1.2058;
974.1000;0.7660;1.1959;
974.4000;0.7643;1.1910;
974.7000;0.7660;1.1910;
975.0000;0.7668;1.1836;
975.3000;0.7643;1.1664;
975.6000;0.7652;1.1738;
975.9000;0.7668;1.1836;
976.2000;0.7635;1.1787;
976.5000;0.7643;1.1763;
976.8000;0.7660;1.1886;
977.1000;0.7635;1.1787;
977.4000;0.7586;1.1615;
977.7000;0.7652;1.1812;
978.0000;0.7611;1.1664;
978.3000;0.7643;1.1713;
978.6000;0.7660;1.1738;
978.9000;0.7603;1.1516;
979.2000;0.7717;1.1787;
979.5000;0.7676;1.1763;
979.8000;0.7668;1.1910;
980.1000;0.7684;1.2033;
980.4000;0.7643;1.1959;
980.7000;0.7668;1.1984;
981.0000;0.7643;1.1959;
981.3000;0.7676;1.1959;
981.6000;0.7676;1.1959;
981.9000;0.7643;1.1812;
982.2000;0.7611;1.1738;
982.5000;0.7660;1.1886;
982.8000;0.7643;1.1787;
983.1000;0.7627;1.1787;
983.4000;0.7660;1.1836;
983.7000;0.7627;1.1787;
984.0000;0.7643;1.1713;
984.3000;0.7643;1.1689;
984.6000;0.7635;1.1787;
984.9000;0.7668;1.1886;
985.2000;0.7611;1.1763;
985.5000;0.7652;1.1910;
985.8000;0.7652;1.1984;
986.1000;0.7643;1.2033;
986.4000;0.7652;1.2082;
986.7000;0.7652;1.2009;
987.0000;0.7660;1.1959;
987.3000;0.7643;1.1984;
987.6000;0.7660;1.1959;
987.9000;0.7652;1.1886;
988.2000;0.7643;1.1787;
988.5000;0.7643;1.1787;
988.8000;0.7660;1.1886;
989.1000;0.7676;1.1935;
989.4000;0.7668;1.1935;
989.7000;0.7635;1.1861;
990.0000;0.7684;1.1984;
990.3000;0.7660;1.1959;
990.6000;0.7635;1.1910;
990.9000;0.7643;1.1886;
991.2000;0.7652;1.1910;
991.5000;0.7643;1.1861;
991.8000;0.7643;1.1861;
992.1000;0.7635;1.1935;
992.4000;0.7635;1.1861;
992.7000;0.7652;1.1812;
993.0000;0.7668;1.1861;
993.3000;0.7643;1.1787;
993.6000;0.7652;1.1738;
993.9000;0.7660;1.1763;
994.2000;0.7635;1.1787;
994.5000;0.7643;1.1763;
994.8000;0.7595;1.1713;
995.1000;0.7635;1.1861;
995.4000;0.7643;1.1836;
995.7000;0.7635;1.1812;
996.0000;0.7627;1.1836;
996.3000;0.7676;1.1959;
996.6000;0.7660;1.1959;
996.9000;0.7635;1.1886;
997.2000;0.7660;1.1984;
997.5000;0.7668;1.2033;
997.8000;0.7643;1.1959;
998.1000;0.7660;1.1959;
998.4000;0.7652;1.1959;
998.7000;0.7660;1.2033;
999.0000;0.7660;1.2009;
999.3000;0.7652;1.2009;
999.6000;0.7660;1.2058;
999.9000;0.7660;1.2132;
1000.2000;0.7643;1.2009;
1000.5000;0.7643;1.1984;
1000.8000;0.7570;1.1787;
1001.1000;0.7635;1.1935;
1001.4000;0.7643;1.2033;
1001.7000;0.7643;1.2082;
1002.0000;0.7652;1.2132;
1002.3000;0.7643;1.2107;
1002.6000;0.7635;1.2107;
1002.9000;0.7643;1.2156;
1003.2000;0.7676;1.2181;
1003.5000;0.7660;1.2033;
1003.8000;0.7652;1.2009;
1004.1000;0.7652;1.2132;
1004.4000;0.7652;1.2107;
1004.7000;0.7643;1.2009;
1005.0000;0.7660;1.1984;
1005.3000;0.7627;1.1910;
1005.6000;0.7660;1.1935;
1005.9000;0.7643;1.1886;
1006.2000;0.7643;1.1836;
1006.5000;0.7627;1.1861;
1006.8000;0.7668;1.1886;
1007.1000;0.7652;1.1861;
1007.4000;0.7652;1.1886;
1007.7000;0.7684;1.2009;
1008.0000;0.7660;1.1935;
1008.3000;0.7627;1.1861;
1008.6000;0.7643;1.1935;
1008.9000;0.7660;1.1959;
1009.2000;0.7660;1.1959;
1009.5000;0.7652;1.1984;
1009.8000;0.7660;1.2058;
1010.1000;0.7635;1.2009;
1010.4000;0.7660;1.1984;
1010.7000;0.7660;1.2009;
1011.0000;0.7627;1.1836;
1011.3000;0.7619;1.1861;
1011.6000;0.7611;1.1910;
1011.9000;0.7668;1.2058;
1012.2000;0.7627;1.1984;
1012.5000;0.7668;1.1959;
1012.8000;0.7660;1.1959;
1013.1000;0.7660;1.1984;
1013.4000;0.7643;1.1935;
1013.7000;0.7660;1.1959;
1014.0000;0.7643;1.1935;
1014.3000;0.7709;1.2107;
1014.6000;0.7668;1.2082;
1014.9000;0.7668;1.2009;
1015.2000;0.7660;1.2082;
1015.5000;0.7643;1.1910;
1015.8000;0.7660;1.1836;
1016.1000;0.7643;1.1763;
1016.4000;0.7643;1.1812;
1016.7000;0.7668;1.1959;
1017.0000;0.7643;1.1935;
1017.3000;0.7643;1.1836;
1017.6000;0.7668;1.1935;
1017.9000;0.7660;1.1935;
1018.2000;0.7652;1.1886;
1018.5000;0.7652;1.1787;
1018.8000;0.7627;1.1836;
1019.1000;0.7652;1.1959;
1019.4000;0.7676;1.2082;
1019.7000;0.7611;1.1984;
1020.0000;0.7652;1.2033;
1020.3000;0.7643;1.1959;
1020.6000;0.7717;1.2206;
1020.9000;0.7684;1.2058;
1021.2000;0.7635;1.1886;
1021.5000;0.7643;1.2033;
1021.8000;0.7692;1.2132;
1022.1000;0.7660;1.2107;
1022.4000;0.7684;1.2082;
1022.7000;0.7635;1.1935;
1023.0000;0.7660;1.1959;
1023.3000;0.7643;1.1984;
1023.6000;0.7660;1.1984;
1023.9000;0.7627;1.1836;
1024.2000;0.7643;1.1935;
1024.5000;0.7619;1.1861;
1024.8000;0.7652;1.1959;
1025.1000;0.7643;1.2033;
1025.4000;0.7586;1.1959;
1025.7000;0.7635;1.2107;
1026.0000;0.7619;1.2082;
1026.3000;0.7595;1.1910;
1026.6000;0.7619;1.1935;
1026.9000;0.7562;1.1787;
1027.2000;0.7643;1.1910;
1027.5000;0.7643;1.1886;
1027.8000;0.7627;1.1812;
1028.1000;0.7635;1.1935;
1028.4000;0.7643;1.2009;
1028.7000;0.7643;1.1959;
1029.0000;0.7643;1.1935;
1029.3000;0.7652;1.1910;
1029.6000;0.7652;1.1886;
1029.9000;0.7652;1.1787;
1030.2000;0.7660;1.1763;
1030.5000;0.7635;1.1738;
1030.8000;0.7635;1.1812;
1031.1000;0.7652;1.1787;
1031.4000;0.7660;1.1738;
1031.7000;0.7635;1.1713;
1032.0000;0.7733;1.1910;
1032.3000;0.7668;1.1861;
1032.6000;0.7635;1.1836;
1032.9000;0.7660;1.1861;
1033.2000;0.7652;1.1836;
1033.5000;0.7652;1.1836;
1033.8000;0.7635;1.1861;
1034.1000;0.7635;1.1763;
1034.4000;0.7660;1.1836;
1034.7000;0.7643;1.1738;
1035.0000;0.7643;1.1738;
1035.3000;0.7643;1.1763;
1035.6000;0.7660;1.1861;
1035.9000;0.7652;1.1935;
1036.2000;0.7627;1.1787;
1036.5000;0.7652;1.1836;
1036.8000;0.7692;1.1959;
1037.1000;0.7652;1.1861;
1037.4000;0.7635;1.1861;
1037.7000;0.7652;1.1861;
1038.0000;0.7611;1.1763;
1038.3000;0.7652;1.1959;
1038.6000;0.7660;1.1959;
1038.9000;0.7660;1.2033;
1039.2000;0.7652;1.2082;
1039.5000;0.7643;1.2009;
1039.8000;0.7643;1.2009;
1040.1000;0.7652;1.2033;
1040.4000;0.7652;1.1984;
1040.7000;0.7611;1.1910;
1041.0000;0.7627;1.1812;
1041.3000;0.7643;1.1861;
1041.6000;0.7635;1.1910;
1041.9000;0.7643;1.1935;
1042.2000;0.7643;1.1910;
1042.5000;0.7660;1.1959;
1042.8000;0.7652;1.1886;
1043.1000;0.7643;1.1886;
1043.4000;0.7643;1.1886;
1043.7000;0.7652;1.1935;
1044.0000;0.7660;1.1984;
1044.3000;0.7652;1.2009;
1044.6000;0.7643;1.2009;
1044.9000;0.7635;1.2009;
1045.2000;0.7652;1.1984;
1045.5000;0.7652;1.2058;
1045.8000;0.7643;1.2206;
1046.1000;0.7554;1.1886;
1046.4000;0.7643;1.2033;
1046.7000;0.7652;1.2058;
1047.0000;0.7652;1.2033;
1047.3000;0.7643;1.2082;
1047.6000;0.7635;1.2009;
1047.9000;0.7635;1.2033;
1048.2000;0.7643;1.2033;
1048.5000;0.7635;1.2009;
1048.8000;0.7635;1.2033;
1049.1000;0.7643;1.1935;
1049.4000;0.7635;1.1886;
1049.7000;0.7627;1.1886;
1050.0000;0.7652;1.1886;
1050.3000;0.7652;1.1886;
1050.6000;0.7660;1.1935;
1050.9000;0.7692;1.2033;
1051.2000;0.7627;1.1886;
1051.5000;0.7635;1.1959;
1051.8000;0.7652;1.2009;
1052.1000;0.7652;1.1959;
1052.4000;0.7635;1.1959;
1052.7000;0.7635;1.2009;
1053.0000;0.7643;1.2033;
1053.3000;0.7652;1.1984;
1053.6000;0.7643;1.1984;
1053.9000;0.7635;1.1886;
1054.2000;0.7660;1.1886;
1054.5000;0.7652;1.1812;
1054.8000;0.7652;1.1861;
1055.1000;0.7643;1.1763;
1055.4000;0.7660;1.1812;
1055.7000;0.7652;1.1812;
1056.0000;0.7652;1.1836;
1056.3000;0.7668;1.1861;
1056.6000;0.7660;1.1812;
1056.9000;0.7660;1.1836;
1057.2000;0.7660;1.1910;
1057.5000;0.7676;1.1886;
1057.8000;0.7652;1.1861;
1058.1000;0.7660;1.1861;
1058.4000;0.7643;1.1763;
1058.7000;0.7652;1.1763;
1059.0000;0.7652;1.1787;
1059.3000;0.7652;1.1812;
1059.6000;0.7668;1.1763;
1059.9000;0.7660;1.1689;
1060.2000;0.7652;1.1787;
1060.5000;0.7643;1.1861;
1060.8000;0.7660;1.1787;
1061.1000;0.7660;1.1812;
1061.4000;0.7652;1.1713;
1061.7000;0.7643;1.1836;
1062.0000;0.7652;1.1836;
1062.3000;0.7660;1.1787;
1062.6000;0.7643;1.1664;
1062.9000;0.7619;1.1689;
1063.2000;0.7643;1.1763;
1063.5000;0.7643;1.1787;
1063.8000;0.7652;1.1910;
1064.1000;0.7692;1.2058;
1064.4000;0.7635;1.1935;
1064.7000;0.7635;1.2009;
1065.0000;0.7652;1.2033;
1065.3000;0.7611;1.1812;
1065.6000;0.7643;1.1910;
1065.9000;0.7660;1.2009;
1066.2000;0.7668;1.2009;
1066.5000;0.7643;1.1959;
1066.8000;0.7611;1.1763;
1067.1000;0.7660;1.1763;
1067.4000;0.7668;1.1763;
1067.7000;0.7627;1.1763;
1068.0000;0.7635;1.1861;
1068.3000;0.7619;1.1836;
1068.6000;0.7660;1.1886;
1068.9000;0.7709;1.1984;
1069.2000;0.7635;1.1738;
1069.5000;0.7643;1.1787;
1069.8000;0.7643;1.1886;
1070.1000;0.7619;1.1763;
1070.4000;0.7619;1.1812;
1070.7000;0.7676;1.1984;
1071.0000;0.7676;1.1910;
1071.3000;0.7586;1.1787;
1071.6000;0.7627;1.1886;
1071.9000;0.7635;1.1886;
1072.2000;0.7635;1.1959;
1072.5000;0.7643;1.2033;
1072.8000;0.7627;1.1959;
1073.1000;0.7643;1.2033;
1073.4000;0.7635;1.1959;
1073.7000;0.7643;1.1959;
1074.0000;0.7652;1.2107;
1074.3000;0.7635;1.2058;
1074.6000;0.7635;1.2156;
1074.9000;0.7749;1.2452;
1075.2000;0.7643;1.2132;
1075.5000;0.7643;1.2082;
1075.8000;0.7660;1.2082;
1076.1000;0.7635;1.1984;
1076.4000;0.7652;1.2058;
1076.7000;0.7643;1.2058;
1077.0000;0.7652;1.2058;
1077.3000;0.7635;1.2058;
1077.6000;0.7652;1.1959;
1077.9000;0.7627;1.1935;
1078.2000;0.7643;1.1861;
1078.5000;0.7635;1.1910;
1078.8000;0.7660;1.1910;
1079.1000;0.7660;1.1886;
1079.4000;0.7652;1.1861;
1079.7000;0.7643;1.1910;
1080.0000;0.7643;1.1836;
1080.3000;0.7643;1.1910;
1080.6000;0.7652;1.1836;
1080.9000;0.7668;1.1984;
1081.2000;0.7652;1.1886;
1081.5000;0.7652;1.1886;
1081.8000;0.7619;1.1836;
1082.1000;0.7635;1.1935;
1082.4000;0.7643;1.2033;
1082.7000;0.7635;1.1886;
1083.0000;0.7643;1.1886;
1083.3000;0.7676;1.1886;
1083.6000;0.7643;1.1861;
1083.9000;0.7652;1.1812;
1084.2000;0.7652;1.1812;
1084.5000;0.7652;1.1763;
1084.8000;0.7652;1.1763;
1085.1000;0.7652;1.1689;
1085.4000;0.7643;1.1738;
1085.7000;0.7668;1.1713;
1086.0000;0.7595;1.1640;
1086.3000;0.7643;1.1787;
1086.6000;0.7635;1.1787;
1086.9000;0.7692;1.1861;
1087.2000;0.7635;1.1812;
1087.5000;0.7603;1.1738;
1087.8000;0.7652;1.1861;
1088.1000;0.7643;1.1787;
1088.4000;0.7652;1.1836;
1088.7000;0.7619;1.1689;
1089.0000;0.7668;1.1861;
1089.3000;0.7643;1.1812;
1089.6000;0.7652;1.1812;
1089.9000;0.7635;1.1738;
1090.2000;0.7627;1.1689;
1090.5000;0.7643;1.1738;
1090.8000;0.7652;1.1738;
1091.1000;0.7627;1.1713;
1091.4000;0.7643;1.1615;
1091.7000;0.7603;1.1566;
1092.0000;0.7652;1.1640;
1092.3000;0.7652;1.1689;
1092.6000;0.7619;1.1689;
1092.9000;0.7652;1.1836;
1093.2000;0.7627;1.1738;
1093.5000;0.7643;1.1713;
1093.8000;0.7595;1.1590;
1094.1000;0.7603;1.1615;
1094.4000;0.7741;1.1861;
1094.7000;0.7668;1.1787;
1095.0000;0.7660;1.1886;
1095.3000;0.7627;1.1886;
1095.6000;0.7660;1.1935;
1095.9000;0.7643;1.1886;
1096.2000;0.7652;1.1886;
1096.5000;0.7635;1.1886;
1096.8000;0.7660;1.1910;
1097.1000;0.7684;1.2033;
1097.4000;0.7635;1.1984;
1097.7000;0.7635;1.1984;
1098.0000;0.7643;1.2082;
1098.3000;0.7635;1.1935;
1098.6000;0.7635;1.1984;
1098.9000;0.7741;1.2279;
1099.2000;0.7627;1.1984;
1099.5000;0.7635;1.2058;
1099.8000;0.7635;1.2009;
1100.1000;0.7643;1.1886;
1100.4000;0.7643;1.1861;
1100.7000;0.7643;1.1861;
1101.0000;0.7660;1.1787;
1101.3000;0.7676;1.1738;
1101.6000;0.7643;1.1689;
1101.9000;0.7643;1.1738;
1102.2000;0.7668;1.1861;
1102.5000;0.7643;1.1787;
1102.8000;0.7643;1.1787;
1103.1000;0.7668;1.1763;
1103.4000;0.7684;1.1836;
1103.7000;0.7652;1.1886;
1104.0000;0.7643;1.1886;
1104.3000;0.7643;1.1910;
1104.6000;0.7668;1.1935;
1104.9000;0.7635;1.1959;
1105.2000;0.7652;1.1959;
1105.5000;0.7643;1.1935;
1105.8000;0.7635;1.1984;
1106.1000;0.7627;1.1959;
1106.4000;0.7619;1.2033;
1106.7000;0.7635;1.2156;
1107.0000;0.7660;1.2156;
1107.3000;0.7660;1.2156;
1107.6000;0.7643;1.2132;
1107.9000;0.7611;1.2033;
1108.2000;0.7660;1.1984;
1108.5000;0.7643;1.1984;
1108.8000;0.7570;1.1886;
1109.1000;0.7586;1.1886;
1109.4000;0.7562;1.1886;
1109.7000;0.7643;1.2033;
1110.0000;0.7546;1.1836;
1110.3000;0.7652;1.2033;
1110.6000;0.7725;1.2206;
1110.9000;0.7627;1.1861;
1111.2000;0.7725;1.2082;
1111.5000;0.7668;1.1910;
1111.8000;0.7635;1.1886;
1112.1000;0.7660;1.1984;
1112.4000;0.7643;1.2033;
1112.7000;0.7603;1.2058;
1113.0000;0.7635;1.2058;
1113.3000;0.7676;1.2181;
1113.6000;0.7692;1.2156;
1113.9000;0.7619;1.2009;
1114.2000;0.7652;1.1984;
1114.5000;0.7652;1.2033;
1114.8000;0.7619;1.1935;
1115.1000;0.7627;1.2033;
1115.4000;0.7627;1.2058;
1115.7000;0.7684;1.2255;
1116.0000;0.7643;1.2082;
1116.3000;0.7660;1.2107;
1116.6000;0.7627;1.2082;
1116.9000;0.7611;1.2107;
1117.2000;0.7619;1.2058;
1117.5000;0.7627;1.2132;
1117.8000;0.7603;1.2033;
1118.1000;0.7619;1.2132;
1118.4000;0.7619;1.2132;
1118.7000;0.7676;1.2279;
1119.0000;0.7643;1.2132;
1119.3000;0.7643;1.2181;
1119.6000;0.7652;1.2156;
1119.9000;0.7676;1.2181;
1120.2000;0.7643;1.2156;
1120.5000;0.7652;1.2058;
1120.8000;0.7652;1.2082;
1121.1000;0.7652;1.2107;
1121.4000;0.7668;1.2181;
1121.7000;0.7668;1.2181;
1122.0000;0.7635;1.2107;
1122.3000;0.7652;1.2033;
1122.6000;0.7635;1.1959;
1122.9000;0.7611;1.1910;
1123.2000;0.7643;1.1886;
1123.5000;0.7643;1.1861;
1123.8000;0.7660;1.1886;
1124.1000;0.7652;1.1836;
1124.4000;0.7643;1.1738;
1124.7000;0.7643;1.1836;
1125.0000;0.7668;1.1836;
1125.3000;0.7660;1.1886;
1125.6000;0.7668;1.1861;
1125.9000;0.7652;1.1935;
1126.2000;0.7676;1.2082;
1126.5000;0.7660;1.2058;
1126.8000;0.7668;1.2082;
1127.1000;0.7668;1.2082;
1127.4000;0.7652;1.2058;
1127.7000;0.7684;1.2107;
1128.0000;0.7627;1.1935;
1128.3000;0.7643;1.1959;
1128.6000;0.7643;1.1935;
1128.9000;0.7652;1.1959;
1129.2000;0.7627;1.1984;
1129.5000;0.7652;1.2082;
1129.8000;0.7635;1.1959;
1130.1000;0.7627;1.1959;
1130.4000;0.7660;1.2009;
1130.7000;0.7635;1.1886;
1131.0000;0.7643;1.1935;
1131.3000;0.7635;1.1959;
1131.6000;0.7635;1.1959;
1131.9000;0.7660;1.1984;
1132.2000;0.7635;1.1935;
1132.5000;0.7643;1.1959;
1132.8000;0.7643;1.2009;
1133.1000;0.7660;1.2058;
1133.4000;0.7643;1.2009;
1133.7000;0.7635;1.2058;
1134.0000;0.7684;1.2181;
1134.3000;0.7643;1.2156;
1134.6000;0.7586;1.2009;
1134.9000;0.7660;1.2156;
1135.2000;0.7643;1.2107;
1135.5000;0.7643;1.2033;
1135.8000;0.7652;1.2082;
1136.1000;0.7660;1.2132;
1136.4000;0.7643;1.2107;
1136.7000;0.7676;1.2181;
1137.0000;0.7652;1.2058;
1137.3000;0.7635;1.1984;
1137.6000;0.7635;1.2033;
1137.9000;0.7635;1.1959;
1138.2000;0.7643;1.1959;
1138.5000;0.7660;1.1984;
1138.8000;0.7660;1.1910;
1139.1000;0.7643;1.1812;
1139.4000;0.7668;1.1935;
1139.7000;0.7643;1.1910;
1140.0000;0.7643;1.1812;
1140.3000;0.7643;1.1787;
1140.6000;0.7643;1.1787;
1140.9000;0.7595;1.1713;
1141.2000;0.7652;1.1959;
1141.5000;0.7627;1.1910;
1141.8000;0.7643;1.2009;
1142.1000;0.7652;1.2009;
1142.4000;0.7643;1.1984;
1142.7000;0.7660;1.1959;
1143.0000;0.7635;1.1984;
1143.3000;0.7652;1.2009;
1143.6000;0.7652;1.2082;
1143.9000;0.7643;1.2107;
1144.2000;0.7652;1.2033;
1144.5000;0.7676;1.2033;
1144.8000;0.7643;1.1959;
1145.1000;0.7643;1.1984;
1145.4000;0.7660;1.1959;
1145.7000;0.7668;1.1984;
1146.0000;0.7643;1.1910;
1146.3000;0.7611;1.1984;
1146.6000;0.7676;1.2132;
1146.9000;0.7652;1.1984;
1147.2000;0.7643;1.2009;
1147.5000;0.7635;1.2058;
1147.8000;0.7652;1.2107;
1148.1000;0.7595;1.1861;
1148.4000;0.7635;1.1959;
1148.7000;0.7627;1.2033;
1149.0000;0.7700;1.2255;
1149.3000;0.7668;1.2107;
1149.6000;0.7652;1.2058;
1149.9000;0.7668;1.2082;
1150.2000;0.7652;1.2082;
1150.5000;0.7652;1.2132;
1150.8000;0.7652;1.2156;
1151.1000;0.7652;1.2206;
1151.4000;0.7643;1.2156;
1151.7000;0.7668;1.2181;
1152.0000;0.7652;1.2082;
1152.3000;0.7684;1.2206;
1152.6000;0.7652;1.2156;
1152.9000;0.7660;1.2132;
1153.2000;0.7652;1.2181;
1153.5000;0.7652;1.2181;
1153.8000;0.7692;1.2181;
1154.1000;0.7627;1.2058;
1154.4000;0.7635;1.2033;
1154.7000;0.7643;1.2107;
1155.0000;0.7643;1.2058;
1155.3000;0.7643;1.2058;
1155.6000;0.7660;1.2033;
1155.9000;0.7643;1.1959;
1156.2000;0.7668;1.1984;
1156.5000;0.7652;1.1935;
1156.8000;0.7643;1.1886;
1157.1000;0.7652;1.1935;
1157.4000;0.7668;1.1861;
1157.7000;0.7652;1.1812;
1158.0000;0.7652;1.1910;
1158.3000;0.7660;1.2033;
1158.6000;0.7660;1.2033;
1158.9000;0.7717;1.2181;
1159.2000;0.7643;1.1935;
1159.5000;0.7643;1.2033;
1159.8000;0.7643;1.2033;
1160.1000;0.7652;1.2009;
1160.4000;0.7660;1.2033;
1160.7000;0.7668;1.2058;
1161.0000;0.7733;1.2279;
1161.3000;0.7652;1.2082;
1161.6000;0.7643;1.2132;
1161.9000;0.7660;1.2107;
1162.2000;0.7643;1.2058;
1162.5000;0.7652;1.2058;
1162.8000;0.7652;1.2107;
1163.1000;0.7660;1.2058;
1163.4000;0.7635;1.2082;
1163.7000;0.7660;1.2156;
1164.0000;0.7668;1.2107;
1164.3000;0.7635;1.1984;
1164.6000;0.7643;1.1935;
1164.9000;0.7668;1.1959;
1165.2000;0.7652;1.1984;
1165.5000;0.7643;1.2033;
1165.8000;0.7652;1.2082;
1166.1000;0.7652;1.2082;
1166.4000;0.7652;1.1959;
1166.7000;0.7643;1.2009;
1167.0000;0.7660;1.2058;
1167.3000;0.7668;1.1959;
1167.6000;0.7660;1.1935;
1167.9000;0.7660;1.1910;
1168.2000;0.7643;1.1910;
1168.5000;0.7660;1.1886;
1168.8000;0.7676;1.1861;
1169.1000;0.7643;1.1763;
1169.4000;0.7660;1.1787;
1169.7000;0.7660;1.1836;
1170.0000;0.7700;1.2058;
1170.3000;0.7660;1.1959;
1170.6000;0.7643;1.1886;
1170.9000;0.7660;1.1910;
1171.2000;0.7668;1.1959;
1171.5000;0.7676;1.1984;
1171.8000;0.7643;1.2009;
1172.1000;0.7692;1.2107;
1172.4000;0.7668;1.2132;
1172.7000;0.7668;1.2156;
1173.0000;0.7643;1.2107;
1173.3000;0.7643;1.2132;
1173.6000;0.7660;1.2058;
1173.9000;0.7668;1.2033;
1174.2000;0.7668;1.2033;
1174.5000;0.7700;1.2181;
1174.8000;0.7652;1.2107;
1175.1000;0.7660;1.2107;
1175.4000;0.7709;1.2255;
1175.7000;0.7652;1.2156;
1176.0000;0.7643;1.2206;
1176.3000;0.7676;1.2329;
1176.6000;0.7660;1.2181;
1176.9000;0.7668;1.2181;
1177.2000;0.7652;1.2132;
1177.5000;0.7668;1.2230;
1177.8000;0.7660;1.2279;
1178.1000;0.7676;1.2230;
1178.4000;0.7643;1.2132;
1178.7000;0.7668;1.2181;
1179.0000;0.7692;1.2206;
1179.3000;0.7635;1.2058;
1179.6000;0.7652;1.1984;
1179.9000;0.7668;1.2082;
1180.2000;0.7660;1.2082;
1180.5000;0.7652;1.2009;
1180.8000;0.7652;1.2058;
1181.1000;0.7692;1.2107;
1181.4000;0.7652;1.1886;
1181.7000;0.7660;1.1959;
1182.0000;0.7652;1.1984;
1182.3000;0.7643;1.2009;
1182.6000;0.7643;1.2033;
1182.9000;0.7652;1.1984;
1183.2000;0.7652;1.1861;
1183.5000;0.7652;1.1886;
1183.8000;0.7757;1.2206;
1184.1000;0.7676;1.1959;
1184.4000;0.7668;1.1910;
1184.7000;0.7619;1.1738;
1185.0000;0.7635;1.1763;
1185.3000;0.7643;1.1787;
1185.6000;0.7595;1.1664;
1185.9000;0.7741;1.2033;
1186.2000;0.7652;1.1836;
1186.5000;0.7668;1.1886;
1186.8000;0.7660;1.1812;
1187.1000;0.7660;1.1836;
1187.4000;0.7652;1.1886;
1187.7000;0.7652;1.1935;
1188.0000;0.7635;1.1935;
1188.3000;0.7652;1.1959;
1188.6000;0.7652;1.1959;
1188.9000;0.7652;1.1959;
1189.2000;0.7643;1.1910;
1189.5000;0.7643;1.1959;
1189.8000;0.7643;1.1959;
1190.1000;0.7643;1.1959;
1190.4000;0.7652;1.2058;
1190.7000;0.7652;1.2107;
1191.0000;0.7643;1.2082;
1191.3000;0.7652;1.2082;
1191.6000;0.7635;1.2009;
1191.9000;0.7660;1.1959;
1192.2000;0.7676;1.1935;
1192.5000;0.7676;1.1886;
1192.8000;0.7643;1.1787;
1193.1000;0.7668;1.1861;
1193.4000;0.7692;1.1910;
1193.7000;0.7676;1.1984;
1194.0000;0.7668;1.2058;
1194.3000;0.7660;1.2107;
1194.6000;0.7668;1.2107;
1194.9000;0.7652;1.2082;
1195.2000;0.7660;1.2107;
1195.5000;0.7660;1.1984;
1195.8000;0.7660;1.1984;
1196.1000;0.7660;1.2058;
1196.4000;0.7652;1.1935;
1196.7000;0.7652;1.2009;
1197.0000;0.7676;1.2107;
1197.3000;0.7660;1.1984;
1197.6000;0.7660;1.2033;
1197.9000;0.7652;1.1984;
1198.2000;0.7660;1.2033;
1198.5000;0.7660;1.1935;
1198.8000;0.7660;1.1959;
1199.1000;0.7635;1.1861;
1199.4000;0.7668;1.1984;
1199.7000;0.7660;1.2107;
1200.0000;0.7660;1.2107;
1200.3000;0.7635;1.2058;
1200.6000;0.7668;1.2082;
1200.9000;0.7586;1.1886;
1201.2000;0.7660;1.1935;
1201.5000;0.7627;1.1910;
1201.8000;0.7635;1.1886;
1202.1000;0.7652;1.1910;
1202.4000;0.7652;1.1959;
1202.7000;0.7627;1.1836;
1203.0000;0.7643;1.1763;
1203.3000;0.7668;1.1861;
1203.6000;0.7660;1.1861;
1203.9000;0.7660;1.1836;
1204.2000;0.7668;1.1836;
1204.5000;0.7660;1.1787;
1204.8000;0.7635;1.1812;
1205.1000;0.7652;1.1886;
1205.4000;0.7652;1.1984;
1205.7000;0.7652;1.2009;
1206.0000;0.7668;1.2181;
1206.3000;0.7643;1.2082;
1206.6000;0.7709;1.2279;
1206.9000;0.7717;1.2304;
1207.2000;0.7635;1.2033;
1207.5000;0.7635;1.1984;
1207.8000;0.7660;1.2058;
1208.1000;0.7635;1.2082;
1208.4000;0.7660;1.2082;
1208.7000;0.7660;1.2082;
1209.0000;0.7586;1.1886;
1209.3000;0.7668;1.2132;
1209.6000;0.7611;1.1984;
1209.9000;0.7652;1.2033;
1210.2000;0.7643;1.1836;
1210.5000;0.7652;1.1836;
1210.8000;0.7668;1.1910;
1211.1000;0.7619;1.1910;
1211.4000;0.7635;1.2033;
1211.7000;0.7652;1.2107;
1212.0000;0.7660;1.2058;
1212.3000;0.7643;1.1984;
1212.6000;0.7668;1.1984;
1212.9000;0.7652;1.1861;
1213.2000;0.7643;1.1836;
1213.5000;0.7660;1.1886;
1213.8000;0.7643;1.1910;
1214.1000;0.7668;1.1984;
1214.4000;0.7660;1.2107;
1214.7000;0.7684;1.2058;
1215.0000;0.7684;1.2082;
1215.3000;0.7660;1.2058;
1215.6000;0.7668;1.1959;
1215.9000;0.7643;1.1910;
1216.2000;0.7668;1.2009;
1216.5000;0.7627;1.1836;
1216.8000;0.7652;1.1886;
1217.1000;0.7668;1.1984;
1217.4000;0.7668;1.2107;
1217.7000;0.7652;1.2058;
1218.0000;0.7635;1.1959;
1218.3000;0.7652;1.2033;
1218.6000;0.7635;1.2058;
1218.9000;0.7668;1.2082;
1219.2000;0.7668;1.2082;
1219.5000;0.7660;1.1984;
1219.8000;0.7660;1.1984;
1220.1000;0.7684;1.1935;
1220.4000;0.7668;1.1861;
1220.7000;0.7611;1.1738;
1221.0000;0.7684;1.1886;
1221.3000;0.7668;1.1886;
1221.6000;0.7660;1.1959;
1221.9000;0.7668;1.1910;
1222.2000;0.7635;1.1861;
1222.5000;0.7684;1.1984;
1222.8000;0.7668;1.1910;
1223.1000;0.7578;1.1689;
1223.4000;0.7635;1.1910;
1223.7000;0.7652;1.1959;
1224.0000;0.7676;1.1910;
1224.3000;0.7660;1.1910;
1224.6000;0.7652;1.1935;
1224.9000;0.7660;1.1959;
1225.2000;0.7700;1.2058;
1225.5000;0.7676;1.1959;
1225.8000;0.7660;1.2009;
1226.1000;0.7676;1.2009;
1226.4000;0.7652;1.2009;
1226.7000;0.7635;1.1910;
1227.0000;0.7692;1.2058;
1227.3000;0.7635;1.1935;
1227.6000;0.7652;1.1935;
1227.9000;0.7660;1.2009;
1228.2000;0.7676;1.2082;
1228.5000;0.7595;1.1886;
1228.8000;0.7635;1.1861;
1229.1000;0.7660;1.1861;
1229.4000;0.7652;1.1787;
1229.7000;0.7700;1.2009;
1230.0000;0.7684;1.1984;
1230.3000;0.7692;1.2107;
1230.6000;0.7652;1.1984;
1230.9000;0.7652;1.2009;
1231.2000;0.7652;1.2009;
1231.5000;0.7676;1.2107;
1231.8000;0.7676;1.2082;
1232.1000;0.7660;1.2033;
1232.4000;0.7643;1.1959;
1232.7000;0.7725;1.2107;
1233.0000;0.7676;1.1984;
1233.3000;0.7668;1.1959;
1233.6000;0.7635;1.1713;
1233.9000;0.7586;1.1664;
1234.2000;0.7660;1.1812;
1234.5000;0.7660;1.1861;
1234.8000;0.7684;1.1984;
1235.1000;0.7660;1.2009;
1235.4000;0.7643;1.1984;
1235.7000;0.7676;1.2082;
1236.0000;0.7652;1.2132;
1236.3000;0.7668;1.2206;
1236.6000;0.7668;1.2206;
1236.9000;0.7660;1.2181;
1237.2000;0.7652;1.2082;
1237.5000;0.7676;1.2132;
1237.8000;0.7652;1.2082;
1238.1000;0.7676;1.2132;
1238.4000;0.7652;1.2107;
1238.7000;0.7676;1.2181;
1239.0000;0.7684;1.2181;
1239.3000;0.7668;1.2132;
1239.6000;0.7660;1.2058;
1239.9000;0.7652;1.2082;
1240.2000;0.7619;1.1910;
1240.5000;0.7668;1.1959;
1240.8000;0.7660;1.1886;
1241.1000;0.7660;1.1886;
1241.4000;0.7643;1.1910;
1241.7000;0.7652;1.1861;
1242.0000;0.7660;1.1886;
1242.3000;0.7643;1.1861;
1242.6000;0.7652;1.1861;
1242.9000;0.7652;1.1910;
1243.2000;0.7660;1.1886;
1243.5000;0.7660;1.1836;
1243.8000;0.7652;1.1812;
1244.1000;0.7635;1.1787;
1244.4000;0.7676;1.1861;
1244.7000;0.7668;1.1861;
1245.0000;0.7668;1.1935;
1245.3000;0.7684;1.2082;
1245.6000;0.7660;1.1959;
1245.9000;0.7709;1.2058;
1246.2000;0.7635;1.1861;
1246.5000;0.7668;1.1910;
1246.8000;0.7660;1.1935;
1247.1000;0.7676;1.2033;
1247.4000;0.7668;1.1910;
1247.7000;0.7684;1.1959;
1248.0000;0.7709;1.2082;
1248.3000;0.7652;1.2033;
1248.6000;0.7660;1.2082;
1248.9000;0.7660;1.2033;
1249.2000;0.7660;1.2009;
1249.5000;0.7668;1.2009;
1249.8000;0.7668;1.1910;
1250.1000;0.7733;1.2009;
1250.4000;0.7652;1.1959;
1250.7000;0.7668;1.2033;
1251.0000;0.7676;1.2107;
1251.3000;0.7668;1.2082;
1251.6000;0.7652;1.2082;
1251.9000;0.7668;1.2009;
1252.2000;0.7717;1.2082;
1252.5000;0.7652;1.1959;
1252.8000;0.7652;1.1935;
1253.1000;0.7660;1.1959;
1253.4000;0.7676;1.1984;
1253.7000;0.7660;1.1959;
1254.0000;0.7660;1.1910;
1254.3000;0.7676;1.2009;
1254.6000;0.7652;1.2082;
1254.9000;0.7660;1.2033;
1255.2000;0.7643;1.2033;
1255.5000;0.7643;1.2033;
1255.8000;0.7676;1.1984;
1256.1000;0.7684;1.1959;
1256.4000;0.7676;1.1984;
1256.7000;0.7635;1.1959;
1257.0000;0.7660;1.2033;
1257.3000;0.7660;1.2082;
1257.6000;0.7652;1.2132;
1257.9000;0.7635;1.2058;
1258.2000;0.7652;1.2033;
1258.5000;0.7676;1.2033;
1258.8000;0.7652;1.2033;
1259.1000;0.7660;1.2156;
1259.4000;0.7660;1.2181;
1259.7000;0.7652;1.2132;
1260.0000;0.7668;1.2033;
1260.3000;0.7668;1.2033;
1260.6000;0.7660;1.1984;
1260.9000;0.7643;1.2009;
1261.2000;0.7692;1.2033;
1261.5000;0.7660;1.1959;
1261.8000;0.7684;1.2033;
1262.1000;0.7660;1.2033;
1262.4000;0.7684;1.2181;
1262.7000;0.7676;1.2107;
1263.0000;0.7652;1.2033;
1263.3000;0.7684;1.2107;
1263.6000;0.7684;1.2033;
1263.9000;0.7668;1.1935;
1264.2000;0.7700;1.1984;
1264.5000;0.7652;1.1861;
1264.8000;0.7684;1.2009;
1265.1000;0.7725;1.2058;
1265.4000;0.7668;1.1935;
1265.7000;0.7660;1.1910;
1266.0000;0.7766;1.2206;
1266.3000;0.7684;1.2033;
1266.6000;0.7668;1.2009;
1266.9000;0.7700;1.2181;
1267.2000;0.7684;1.2206;
1267.5000;0.7676;1.2279;
1267.8000;0.7676;1.2255;
1268.1000;0.7692;1.2181;
1268.4000;0.7684;1.2132;
1268.7000;0.7733;1.2230;
1269.0000;0.7668;1.2107;
1269.3000;0.7660;1.2132;
1269.6000;0.7668;1.2132;
1269.9000;0.7619;1.2033;
1270.2000;0.7676;1.2082;
1270.5000;0.7660;1.2033;
1270.8000;0.7627;1.1935;
1271.1000;0.7684;1.2058;
1271.4000;0.7668;1.2107;
1271.7000;0.7676;1.2082;
1272.0000;0.7692;1.2058;
1272.3000;0.7692;1.2058;
1272.6000;0.7684;1.2033;
1272.9000;0.7684;1.2009;
1273.2000;0.7635;1.1935;
1273.5000;0.7684;1.1984;
1273.8000;0.7652;1.1984;
1274.1000;0.7684;1.2033;
1274.4000;0.7684;1.1984;
1274.7000;0.7635;1.1886;
1275.0000;0.7676;1.1959;
1275.3000;0.7692;1.2033;
1275.6000;0.7684;1.1984;
1275.9000;0.7676;1.1959;
1276.2000;0.7668;1.1861;
1276.5000;0.7676;1.1910;
1276.8000;0.7684;1.1959;
1277.1000;0.7676;1.2033;
1277.4000;0.7668;1.2058;
1277.7000;0.7619;1.1910;
1278.0000;0.7668;1.2009;
1278.3000;0.7676;1.2058;
1278.6000;0.7660;1.1984;
1278.9000;0.7684;1.2082;
1279.2000;0.7692;1.1984;
1279.5000;0.7700;1.2033;
1279.8000;0.7684;1.1935;
1280.1000;0.7717;1.2082;
1280.4000;0.7676;1.2009;
1280.7000;0.7660;1.2009;
1281.0000;0.7660;1.1984;
1281.3000;0.7676;1.1935;
1281.6000;0.7684;1.1984;
1281.9000;0.7652;1.1984;
1282.2000;0.7676;1.2033;
1282.5000;0.7676;1.1984;
1282.8000;0.7684;1.1984;
1283.1000;0.7660;1.1959;
1283.4000;0.7676;1.2058;
1283.7000;0.7676;1.2107;
1284.0000;0.7676;1.2058;
1284.3000;0.7668;1.1959;
1284.6000;0.7660;1.1959;
1284.9000;0.7660;1.1935;
1285.2000;0.7700;1.1984;
1285.5000;0.7635;1.1812;
1285.8000;0.7676;1.1886;
1286.1000;0.7643;1.1836;
1286.4000;0.7635;1.1812;
1286.7000;0.7692;1.1984;
1287.0000;0.7676;1.1984;
1287.3000;0.7676;1.1984;
1287.6000;0.7668;1.1959;
1287.9000;0.7676;1.2009;
1288.2000;0.7652;1.1984;
1288.5000;0.7652;1.2033;
1288.8000;0.7660;1.2058;
1289.1000;0.7611;1.1984;
1289.4000;0.7660;1.2058;
1289.7000;0.7643;1.2107;
1290.0000;0.7668;1.2230;
1290.3000;0.7643;1.2107;
1290.6000;0.7643;1.2156;
1290.9000;0.7652;1.2181;
1291.2000;0.7692;1.2353;
1291.5000;0.7668;1.2230;
1291.8000;0.7668;1.2304;
1292.1000;0.7668;1.2255;
1292.4000;0.7660;1.2132;
1292.7000;0.7692;1.2082;
1293.0000;0.7586;1.1738;
1293.3000;0.7676;1.2033;
1293.6000;0.7668;1.2033;
1293.9000;0.7700;1.2156;
1294.2000;0.7684;1.2156;
1294.5000;0.7684;1.2156;
1294.8000;0.7668;1.2082;
1295.1000;0.7676;1.1984;
1295.4000;0.7692;1.2009;
1295.7000;0.7684;1.2033;
1296.0000;0.7676;1.1984;
1296.3000;0.7660;1.1886;
1296.6000;0.7749;1.2156;
1296.9000;0.7660;1.1886;
1297.2000;0.7725;1.2033;
1297.5000;0.7652;1.1935;
1297.8000;0.7652;1.1886;
1298.1000;0.7660;1.1984;
1298.4000;0.7660;1.1984;
1298.7000;0.7668;1.1959;
1299.0000;0.7668;1.1959;
1299.3000;0.7676;1.1959;
1299.6000;0.7692;1.2009;
1299.9000;0.7709;1.2058;
1300.2000;0.7700;1.1984;
1300.5000;0.7684;1.1910;
1300.8000;0.7668;1.1935;
1301.1000;0.7725;1.2107;
1301.4000;0.7660;1.1861;
1301.7000;0.7652;1.1910;
1302.0000;0.7717;1.2082;
1302.3000;0.7684;1.2033;
1302.6000;0.7668;1.2009;
1302.9000;0.7676;1.2033;
1303.2000;0.7619;1.1910;
1303.5000;0.7676;1.2082;
1303.8000;0.7676;1.2132;
1304.1000;0.7676;1.2156;
1304.4000;0.7741;1.2353;
1304.7000;0.7692;1.2230;
1305.0000;0.7652;1.2132;
1305.3000;0.7676;1.2206;
1305.6000;0.7684;1.2156;
1305.9000;0.7692;1.2181;
1306.2000;0.7692;1.2107;
1306.5000;0.7684;1.2009;
1306.8000;0.7676;1.2107;
1307.1000;0.7660;1.2033;
1307.4000;0.7676;1.2181;
1307.7000;0.7676;1.2206;
1308.0000;0.7684;1.2255;
1308.3000;0.7709;1.2279;
1308.6000;0.7676;1.2181;
1308.9000;0.7709;1.2206;
1309.2000;0.7660;1.2033;
1309.5000;0.7700;1.2033;
1309.8000;0.7676;1.1935;
1310.1000;0.7660;1.1984;
1310.4000;0.7692;1.2107;
1310.7000;0.7668;1.2107;
1311.0000;0.7652;1.2132;
1311.3000;0.7684;1.2181;
1311.6000;0.7676;1.2181;
1311.9000;0.7668;1.2181;
1312.2000;0.7676;1.2206;
1312.5000;0.7684;1.2181;
1312.8000;0.7676;1.2009;
1313.1000;0.7692;1.2082;
1313.4000;0.7676;1.2132;
1313.7000;0.7676;1.2156;
1314.0000;0.7700;1.2156;
1314.3000;0.7668;1.2107;
1314.6000;0.7676;1.2058;
1314.9000;0.7676;1.2107;
1315.2000;0.7676;1.2132;
1315.5000;0.7676;1.2082;
1315.8000;0.7684;1.2033;
1316.1000;0.7676;1.2132;
1316.4000;0.7692;1.2107;
1316.7000;0.7733;1.2279;
1317.0000;0.7700;1.2156;
1317.3000;0.7676;1.2156;
1317.6000;0.7692;1.2156;
1317.9000;0.7700;1.2181;
1318.2000;0.7668;1.2107;
1318.5000;0.7676;1.2058;
1318.8000;0.7700;1.2156;
1319.1000;0.7684;1.2156;
1319.4000;0.7717;1.2279;
1319.7000;0.7676;1.2107;
1320.0000;0.7725;1.2255;
1320.3000;0.7684;1.2206;
1320.6000;0.7676;1.2255;
1320.9000;0.7660;1.2156;
1321.2000;0.7684;1.2230;
1321.5000;0.7684;1.2181;
1321.8000;0.7668;1.2181;
1322.1000;0.7668;1.2107;
1322.4000;0.7684;1.2132;
1322.7000;0.7676;1.2058;
1323.0000;0.7668;1.2058;
1323.3000;0.7684;1.2033;
1323.6000;0.7668;1.2009;
1323.9000;0.7709;1.2107;
1324.2000;0.7684;1.2033;
1324.5000;0.7684;1.2033;
1324.8000;0.7676;1.1984;
1325.1000;0.7684;1.1910;
1325.4000;0.7692;1.1886;
1325.7000;0.7676;1.1886;
1326.0000;0.7684;1.1959;
1326.3000;0.7668;1.1984;
1326.6000;0.7676;1.1959;
1326.9000;0.7684;1.1935;
1327.2000;0.7660;1.1836;
1327.5000;0.7635;1.1738;
1327.8000;0.7676;1.1886;
1328.1000;0.7692;1.1910;
1328.4000;0.7692;1.1886;
1328.7000;0.7660;1.1836;
1329.0000;0.7692;1.1910;
1329.3000;0.7692;1.1984;
1329.6000;0.7676;1.2033;
1329.9000;0.7668;1.2009;
1330.2000;0.7676;1.2033;
1330.5000;0.7692;1.2033;
1330.8000;0.7684;1.2058;
1331.1000;0.7676;1.1984;
1331.4000;0.7709;1.2107;
1331.7000;0.7709;1.2107;
1332.0000;0.7692;1.2107;
1332.3000;0.7676;1.2107;
1332.6000;0.7684;1.2082;
1332.9000;0.7684;1.2107;
1333.2000;0.7668;1.2107;
1333.5000;0.7676;1.2132;
1333.8000;0.7684;1.2132;
1334.1000;0.7676;1.2082;
1334.4000;0.7692;1.2058;
1334.7000;0.7668;1.2033;
1335.0000;0.7676;1.2033;
1335.3000;0.7684;1.1959;
1335.6000;0.7692;1.1959;
1335.9000;0.7652;1.1935;
1336.2000;0.7709;1.2058;
1336.5000;0.7668;1.1910;
1336.8000;0.7692;1.1959;
1337.1000;0.7643;1.1861;
1337.4000;0.7660;1.1861;
1337.7000;0.7684;1.1984;
1338.0000;0.7684;1.1935;
1338.3000;0.7676;1.1935;
1338.6000;0.7684;1.2009;
1338.9000;0.7676;1.2107;
1339.2000;0.7684;1.2082;
1339.5000;0.7692;1.2033;
1339.8000;0.7684;1.1984;
1340.1000;0.7660;1.1935;
1340.4000;0.7692;1.2107;
1340.7000;0.7668;1.2082;
1341.0000;0.7676;1.2206;
1341.3000;0.7684;1.2230;
1341.6000;0.7700;1.2279;
1341.9000;0.7684;1.2230;
1342.2000;0.7700;1.2156;
1342.5000;0.7692;1.2107;
1342.8000;0.7692;1.2033;
1343.1000;0.7684;1.2082;
1343.4000;0.7717;1.2206;
1343.7000;0.7709;1.2230;
1344.0000;0.7595;1.1886;
1344.3000;0.7660;1.2033;
1344.6000;0.7700;1.2206;
1344.9000;0.7700;1.2206;
1345.2000;0.7668;1.2132;
1345.5000;0.7668;1.2082;
1345.8000;0.7676;1.1984;
1346.1000;0.7692;1.2009;
1346.4000;0.7692;1.2058;
1346.7000;0.7660;1.2082;
1347.0000;0.7684;1.2058;
1347.3000;0.7668;1.1984;
1347.6000;0.7684;1.2058;
1347.9000;0.7684;1.2107;
1348.2000;0.7684;1.2107;
1348.5000;0.7676;1.2206;
1348.8000;0.7643;1.2156;
1349.1000;0.7766;1.2452;
1349.4000;0.7676;1.2255;
1349.7000;0.7709;1.2279;
1350.0000;0.7700;1.2132;
1350.3000;0.7709;1.2033;
1350.6000;0.7684;1.1984;
1350.9000;0.7700;1.2156;
1351.2000;0.7684;1.2156;
1351.5000;0.7684;1.2107;
1351.8000;0.7692;1.2132;
1352.1000;0.7717;1.2230;
1352.4000;0.7700;1.2181;
1352.7000;0.7684;1.2107;
1353.0000;0.7684;1.2107;
1353.3000;0.7700;1.2082;
1353.6000;0.7700;1.2107;
1353.9000;0.7700;1.2033;
1354.2000;0.7676;1.1935;
1354.5000;0.7684;1.2009;
1354.8000;0.7684;1.2033;
1355.1000;0.7692;1.1959;
1355.4000;0.7684;1.1886;
1355.7000;0.7668;1.1861;
1356.0000;0.7700;1.1935;
1356.3000;0.7684;1.1935;
1356.6000;0.7692;1.1959;
1356.9000;0.7692;1.1935;
1357.2000;0.7627;1.1812;
1357.5000;0.7700;1.2033;
1357.8000;0.7700;1.2058;
1358.1000;0.7676;1.2107;
1358.4000;0.7717;1.2132;
1358.7000;0.7684;1.2082;
1359.0000;0.7709;1.2082;
1359.3000;0.7692;1.2009;
1359.6000;0.7684;1.1910;
1359.9000;0.7684;1.1935;
1360.2000;0.7774;1.2132;
1360.5000;0.7668;1.1910;
1360.8000;0.7676;1.1984;
1361.1000;0.7660;1.1886;
1361.4000;0.7684;1.2009;
1361.7000;0.7684;1.2082;
1362.0000;0.7660;1.1984;
1362.3000;0.7692;1.2058;
1362.6000;0.7692;1.2033;
1362.9000;0.7692;1.2132;
1363.2000;0.7660;1.2082;
1363.5000;0.7692;1.2132;
1363.8000;0.7684;1.2132;
1364.1000;0.7668;1.1984;
1364.4000;0.7684;1.1935;
1364.7000;0.7709;1.1959;
1365.0000;0.7676;1.2033;
1365.3000;0.7692;1.1959;
1365.6000;0.7684;1.1959;
1365.9000;0.7692;1.1984;
1366.2000;0.7700;1.2009;
1366.5000;0.7700;1.2058;
1366.8000;0.7684;1.2058;
1367.1000;0.7700;1.2033;
1367.4000;0.7684;1.2058;
1367.7000;0.7700;1.2058;
1368.0000;0.7692;1.1959;
1368.3000;0.7692;1.2082;
1368.6000;0.7692;1.2082;
1368.9000;0.7692;1.2107;
1369.2000;0.7684;1.2132;
1369.5000;0.7700;1.2107;
1369.8000;0.7684;1.2033;
1370.1000;0.7684;1.2033;
1370.4000;0.7700;1.2107;
1370.7000;0.7709;1.2107;
1371.0000;0.7684;1.2033;
1371.3000;0.7692;1.2058;
1371.6000;0.7700;1.2082;
1371.9000;0.7676;1.2033;
1372.2000;0.7692;1.2058;
1372.5000;0.7684;1.2009;
1372.8000;0.7692;1.2033;
1373.1000;0.7684;1.2107;
1373.4000;0.7692;1.2082;
1373.7000;0.7692;1.2058;
1374.0000;0.7692;1.2156;
1374.3000;0.7709;1.2230;
1374.6000;0.7692;1.2181;
1374.9000;0.7684;1.2156;
1375.2000;0.7700;1.2206;
1375.5000;0.7700;1.2181;
1375.8000;0.7692;1.2206;
1376.1000;0.7684;1.2132;
1376.4000;0.7700;1.2181;
1376.7000;0.7709;1.2082;
1377.0000;0.7692;1.2058;
1377.3000;0.7676;1.1984;
1377.6000;0.7692;1.2082;
1377.9000;0.7709;1.2156;
1378.2000;0.7700;1.2107;
1378.5000;0.7774;1.2156;
1378.8000;0.7741;1.2058;
1379.1000;0.7700;1.1910;
1379.4000;0.7652;1.1836;
1379.7000;0.7700;1.1984;
1380.0000;0.7676;1.1935;
1380.3000;0.7717;1.2107;
1380.6000;0.7692;1.1984;
1380.9000;0.7709;1.2033;
1381.2000;0.7684;1.1959;
1381.5000;0.7676;1.1910;
1381.8000;0.7692;1.2058;
1382.1000;0.7692;1.1910;
1382.4000;0.7676;1.1836;
1382.7000;0.7692;1.1935;
1383.0000;0.7684;1.2033;
1383.3000;0.7709;1.2156;
1383.6000;0.7692;1.2132;
1383.9000;0.7676;1.2058;
1384.2000;0.7684;1.2082;
1384.5000;0.7692;1.1984;
1384.8000;0.7684;1.1959;
1385.1000;0.7692;1.1984;
1385.4000;0.7741;1.2132;
1385.7000;0.7700;1.1886;
1386.0000;0.7684;1.1886;
1386.3000;0.7692;1.2009;
1386.6000;0.7684;1.2009;
1386.9000;0.7684;1.2033;
1387.2000;0.7692;1.2082;
1387.5000;0.7684;1.2132;
1387.8000;0.7733;1.2230;
1388.1000;0.7684;1.2009;
1388.4000;0.7692;1.2009;
1388.7000;0.7692;1.1984;
1389.0000;0.7692;1.2033;
1389.3000;0.7700;1.2082;
1389.6000;0.7700;1.2009;
1389.9000;0.7700;1.2107;
1390.2000;0.7700;1.2156;
1390.5000;0.7749;1.2230;
1390.8000;0.7774;1.2279;
1391.1000;0.7700;1.2033;
1391.4000;0.7684;1.2082;
1391.7000;0.7692;1.2082;
1392.0000;0.7692;1.2107;
1392.3000;0.7709;1.2107;
1392.6000;0.7676;1.2156;
1392.9000;0.7692;1.2181;
1393.2000;0.7692;1.2132;
1393.5000;0.7684;1.2107;
1393.8000;0.7668;1.2082;
1394.1000;0.7700;1.2230;
1394.4000;0.7692;1.2181;
1394.7000;0.7709;1.2255;
1395.0000;0.7717;1.2255;
1395.3000;0.7668;1.2107;
1395.6000;0.7709;1.2255;
1395.9000;0.7709;1.2206;
1396.2000;0.7692;1.2132;
1396.5000;0.7725;1.2082;
1396.8000;0.7692;1.2107;
1397.1000;0.7692;1.2107;
1397.4000;0.7692;1.2107;
1397.7000;0.7692;1.2033;
1398.0000;0.7700;1.2009;
1398.3000;0.7684;1.2009;
1398.6000;0.7700;1.2009;
1398.9000;0.7717;1.1984;
1399.2000;0.7692;1.1984;
1399.5000;0.7684;1.2033;
1399.8000;0.7709;1.2033;
