time/ms;Fluo/V;P700 deltaI/I x10³;
-199.8000;1.0053;1.3879;
-199.5000;1.0037;1.3903;
-199.2000;1.0061;1.3903;
-198.9000;1.0037;1.3903;
-198.6000;1.0077;1.3903;
-198.3000;1.0053;1.3805;
-198.0000;1.0061;1.3830;
-197.7000;1.0045;1.3756;
-197.4000;1.0069;1.3830;
-197.1000;1.0061;1.3830;
-196.8000;1.0085;1.3903;
-196.5000;1.0061;1.3830;
-196.2000;1.0061;1.3903;
-195.9000;1.0061;1.3830;
-195.6000;1.0077;1.3830;
-195.3000;1.0110;1.3879;
-195.0000;1.0061;1.3731;
-194.7000;1.0004;1.3584;
-194.4000;1.0020;1.3657;
-194.1000;0.9963;1.3510;
-193.8000;1.0020;1.3731;
-193.5000;1.0061;1.3879;
-193.2000;1.0061;1.3879;
-192.9000;1.0053;1.3879;
-192.6000;1.0069;1.3879;
-192.3000;1.0077;1.3854;
-192.0000;1.0045;1.3731;
-191.7000;1.0061;1.3707;
-191.4000;1.0077;1.3731;
-191.1000;1.0053;1.3707;
-190.8000;1.0037;1.3854;
-190.5000;1.0004;1.3707;
-190.2000;1.0077;1.3977;
-189.9000;0.9996;1.3731;
-189.6000;0.9972;1.3657;
-189.3000;1.0053;1.3805;
-189.0000;1.0061;1.3830;
-188.7000;1.0199;1.4150;
-188.4000;1.0028;1.3805;
-188.1000;1.0053;1.3756;
-187.8000;1.0012;1.3707;
-187.5000;1.0045;1.3830;
-187.2000;1.0085;1.3903;
-186.9000;1.0053;1.3780;
-186.6000;1.0061;1.3854;
-186.3000;1.0069;1.3879;
-186.0000;1.0012;1.3879;
-185.7000;1.0045;1.4002;
-185.4000;1.0028;1.3879;
-185.1000;1.0053;1.3854;
-184.8000;1.0045;1.3780;
-184.5000;1.0037;1.3731;
-184.2000;1.0037;1.3756;
-183.9000;1.0028;1.3830;
-183.6000;1.0061;1.4002;
-183.3000;1.0053;1.4002;
-183.0000;1.0037;1.4026;
-182.7000;1.0045;1.4026;
-182.4000;1.0069;1.4002;
-182.1000;1.0045;1.4051;
-181.8000;1.0045;1.3977;
-181.5000;1.0037;1.3903;
-181.2000;1.0061;1.4002;
-180.9000;1.0037;1.3953;
-180.6000;1.0085;1.4076;
-180.3000;1.0028;1.3928;
-180.0000;1.0061;1.4026;
-179.7000;1.0053;1.3977;
-179.4000;1.0094;1.4026;
-179.1000;1.0061;1.3903;
-178.8000;1.0069;1.3903;
-178.5000;1.0028;1.3830;
-178.2000;1.0053;1.3879;
-177.9000;1.0045;1.3879;
-177.6000;1.0053;1.3854;
-177.3000;1.0037;1.3805;
-177.0000;1.0053;1.3854;
-176.7000;1.0053;1.3805;
-176.4000;1.0028;1.3707;
-176.1000;1.0037;1.3854;
-175.8000;1.0020;1.3780;
-175.5000;1.0053;1.3854;
-175.2000;1.0077;1.4051;
-174.9000;1.0061;1.3903;
-174.6000;1.0061;1.3879;
-174.3000;1.0028;1.3830;
-174.0000;1.0020;1.3805;
-173.7000;1.0053;1.3879;
-173.4000;1.0053;1.3879;
-173.1000;1.0045;1.3854;
-172.8000;1.0053;1.3854;
-172.5000;1.0045;1.3928;
-172.2000;1.0069;1.3953;
-171.9000;1.0053;1.3928;
-171.6000;1.0061;1.3903;
-171.3000;1.0045;1.3707;
-171.0000;1.0053;1.3780;
-170.7000;1.0061;1.3805;
-170.4000;1.0053;1.3805;
-170.1000;1.0053;1.3756;
-169.8000;1.0094;1.3879;
-169.5000;1.0053;1.3805;
-169.2000;1.0061;1.3805;
-168.9000;1.0004;1.3608;
-168.6000;1.0061;1.3731;
-168.3000;1.0077;1.3731;
-168.0000;1.0061;1.3657;
-167.7000;1.0069;1.3707;
-167.4000;1.0053;1.3707;
-167.1000;1.0053;1.3731;
-166.8000;1.0061;1.3707;
-166.5000;1.0028;1.3682;
-166.2000;1.0069;1.3682;
-165.9000;1.0053;1.3731;
-165.6000;1.0077;1.3756;
-165.3000;1.0045;1.3682;
-165.0000;1.0077;1.3756;
-164.7000;0.9980;1.3510;
-164.4000;1.0077;1.3707;
-164.1000;1.0045;1.3657;
-163.8000;1.0045;1.3657;
-163.5000;1.0053;1.3682;
-163.2000;1.0045;1.3534;
-162.9000;1.0028;1.3485;
-162.6000;1.0045;1.3411;
-162.3000;1.0037;1.3362;
-162.0000;0.9988;1.3239;
-161.7000;1.0069;1.3436;
-161.4000;1.0061;1.3436;
-161.1000;1.0085;1.3510;
-160.8000;1.0061;1.3485;
-160.5000;1.0045;1.3510;
-160.2000;1.0053;1.3411;
-159.9000;1.0045;1.3411;
-159.6000;1.0061;1.3436;
-159.3000;1.0069;1.3411;
-159.0000;0.9963;1.3288;
-158.7000;1.0061;1.3657;
-158.4000;1.0094;1.3830;
-158.1000;1.0077;1.3830;
-157.8000;1.0045;1.3731;
-157.5000;1.0045;1.3707;
-157.2000;1.0053;1.3707;
-156.9000;1.0069;1.3805;
-156.6000;1.0069;1.3707;
-156.3000;1.0045;1.3780;
-156.0000;1.0037;1.3756;
-155.7000;1.0077;1.3830;
-155.4000;1.0020;1.3707;
-155.1000;1.0045;1.3756;
-154.8000;1.0045;1.3805;
-154.5000;1.0020;1.3682;
-154.2000;1.0028;1.3682;
-153.9000;1.0069;1.3903;
-153.6000;1.0077;1.3953;
-153.3000;1.0069;1.3879;
-153.0000;1.0053;1.3731;
-152.7000;1.0061;1.3805;
-152.4000;1.0053;1.3805;
-152.1000;1.0061;1.3805;
-151.8000;1.0037;1.3805;
-151.5000;1.0069;1.3780;
-151.2000;1.0094;1.3805;
-150.9000;1.0053;1.3682;
-150.6000;1.0053;1.3879;
-150.3000;1.0061;1.3854;
-150.0000;1.0061;1.3756;
-149.7000;1.0053;1.3731;
-149.4000;1.0094;1.3830;
-149.1000;1.0045;1.3780;
-148.8000;1.0012;1.3707;
-148.5000;1.0094;1.3879;
-148.2000;1.0118;1.3977;
-147.9000;1.0134;1.3977;
-147.6000;1.0037;1.3707;
-147.3000;1.0045;1.3707;
-147.0000;1.0069;1.3731;
-146.7000;1.0045;1.3657;
-146.4000;1.0110;1.3854;
-146.1000;1.0045;1.3707;
-145.8000;1.0037;1.3633;
-145.5000;1.0053;1.3682;
-145.2000;1.0045;1.3707;
-144.9000;1.0045;1.3780;
-144.6000;1.0037;1.3731;
-144.3000;1.0037;1.3756;
-144.0000;1.0085;1.3805;
-143.7000;1.0053;1.3657;
-143.4000;1.0053;1.3633;
-143.1000;1.0069;1.3707;
-142.8000;1.0053;1.3731;
-142.5000;1.0045;1.3682;
-142.2000;1.0061;1.3756;
-141.9000;1.0053;1.3780;
-141.6000;1.0053;1.3879;
-141.3000;1.0061;1.3879;
-141.0000;1.0045;1.3830;
-140.7000;1.0037;1.3879;
-140.4000;1.0020;1.3879;
-140.1000;1.0061;1.3903;
-139.8000;1.0045;1.3953;
-139.5000;1.0037;1.3879;
-139.2000;1.0061;1.3953;
-138.9000;1.0028;1.3953;
-138.6000;1.0061;1.4002;
-138.3000;1.0102;1.4026;
-138.0000;1.0053;1.4051;
-137.7000;1.0045;1.3953;
-137.4000;1.0069;1.4026;
-137.1000;1.0004;1.3780;
-136.8000;1.0069;1.3879;
-136.5000;1.0069;1.3756;
-136.2000;1.0069;1.3731;
-135.9000;1.0061;1.3731;
-135.6000;1.0045;1.3731;
-135.3000;1.0061;1.3805;
-135.0000;1.0077;1.3854;
-134.7000;1.0061;1.3756;
-134.4000;1.0053;1.3805;
-134.1000;1.0053;1.3805;
-133.8000;1.0045;1.3731;
-133.5000;1.0004;1.3657;
-133.2000;1.0053;1.3830;
-132.9000;1.0045;1.3731;
-132.6000;1.0053;1.3805;
-132.3000;1.0077;1.3903;
-132.0000;0.9988;1.3682;
-131.7000;1.0045;1.3830;
-131.4000;1.0085;1.4051;
-131.1000;1.0012;1.3854;
-130.8000;1.0061;1.3953;
-130.5000;1.0094;1.3953;
-130.2000;1.0028;1.3707;
-129.9000;1.0037;1.3731;
-129.6000;1.0061;1.3805;
-129.3000;1.0077;1.3756;
-129.0000;1.0028;1.3707;
-128.7000;1.0061;1.3756;
-128.4000;1.0085;1.3830;
-128.1000;1.0061;1.3707;
-127.8000;1.0061;1.3707;
-127.5000;1.0020;1.3584;
-127.2000;1.0045;1.3731;
-126.9000;1.0110;1.3928;
-126.6000;1.0069;1.3879;
-126.3000;1.0061;1.3903;
-126.0000;1.0061;1.3953;
-125.7000;1.0077;1.3928;
-125.4000;1.0053;1.3830;
-125.1000;1.0053;1.3805;
-124.8000;1.0061;1.3830;
-124.5000;1.0069;1.3780;
-124.2000;1.0061;1.3854;
-123.9000;1.0061;1.3903;
-123.6000;1.0037;1.3854;
-123.3000;1.0053;1.3854;
-123.0000;1.0053;1.3854;
-122.7000;1.0069;1.3879;
-122.4000;1.0053;1.3879;
-122.1000;1.0061;1.3854;
-121.8000;1.0061;1.3928;
-121.5000;1.0053;1.3879;
-121.2000;1.0045;1.3854;
-120.9000;1.0061;1.3928;
-120.6000;1.0061;1.3928;
-120.3000;1.0037;1.3977;
-120.0000;1.0045;1.3953;
-119.7000;1.0053;1.3928;
-119.4000;1.0069;1.3903;
-119.1000;1.0045;1.3854;
-118.8000;1.0069;1.3830;
-118.5000;1.0045;1.3780;
-118.2000;1.0077;1.3830;
-117.9000;1.0061;1.3780;
-117.6000;1.0069;1.3805;
-117.3000;1.0061;1.3756;
-117.0000;1.0061;1.3780;
-116.7000;1.0077;1.3707;
-116.4000;1.0069;1.3756;
-116.1000;1.0053;1.3731;
-115.8000;1.0028;1.3756;
-115.5000;1.0069;1.3879;
-115.2000;1.0004;1.3682;
-114.9000;1.0045;1.3756;
-114.6000;1.0045;1.3780;
-114.3000;1.0069;1.3830;
-114.0000;1.0045;1.3756;
-113.7000;1.0053;1.3854;
-113.4000;1.0061;1.3879;
-113.1000;1.0045;1.3903;
-112.8000;1.0053;1.3879;
-112.5000;1.0094;1.4051;
-112.2000;1.0045;1.4002;
-111.9000;1.0061;1.4100;
-111.6000;1.0053;1.4076;
-111.3000;1.0053;1.3928;
-111.0000;1.0004;1.3756;
-110.7000;1.0061;1.3879;
-110.4000;1.0085;1.4100;
-110.1000;1.0028;1.3953;
-109.8000;1.0053;1.3928;
-109.5000;1.0077;1.3977;
-109.2000;1.0069;1.3953;
-108.9000;1.0045;1.3903;
-108.6000;1.0053;1.3879;
-108.3000;1.0094;1.4026;
-108.0000;1.0053;1.3879;
-107.7000;1.0118;1.4002;
-107.4000;1.0061;1.3854;
-107.1000;1.0077;1.3731;
-106.8000;1.0061;1.3731;
-106.5000;1.0053;1.3682;
-106.2000;1.0061;1.3682;
-105.9000;1.0061;1.3731;
-105.6000;1.0053;1.3731;
-105.3000;1.0069;1.3830;
-105.0000;1.0069;1.3830;
-104.7000;1.0061;1.3780;
-104.4000;1.0061;1.3854;
-104.1000;1.0069;1.3879;
-103.8000;1.0061;1.3830;
-103.5000;1.0061;1.3805;
-103.2000;1.0061;1.3780;
-102.9000;1.0061;1.3805;
-102.6000;1.0053;1.3854;
-102.3000;1.0061;1.3879;
-102.0000;1.0061;1.3928;
-101.7000;1.0077;1.4076;
-101.4000;1.0053;1.4076;
-101.1000;1.0053;1.4002;
-100.8000;1.0061;1.3953;
-100.5000;1.0045;1.3805;
-100.2000;1.0045;1.3830;
-99.9000;1.0045;1.3879;
-99.6000;1.0045;1.3854;
-99.3000;1.0061;1.3953;
-99.0000;1.0053;1.3879;
-98.7000;1.0045;1.3830;
-98.4000;1.0045;1.3830;
-98.1000;1.0053;1.3879;
-97.8000;1.0045;1.3854;
-97.5000;1.0037;1.3756;
-97.2000;1.0045;1.3657;
-96.9000;1.0045;1.3707;
-96.6000;1.0061;1.3780;
-96.3000;1.0077;1.3805;
-96.0000;1.0053;1.3707;
-95.7000;1.0077;1.3879;
-95.4000;1.0053;1.3830;
-95.1000;1.0077;1.3854;
-94.8000;1.0077;1.3903;
-94.5000;1.0061;1.3830;
-94.2000;1.0045;1.3780;
-93.9000;1.0061;1.3805;
-93.6000;1.0045;1.3780;
-93.3000;1.0053;1.3707;
-93.0000;1.0053;1.3731;
-92.7000;1.0061;1.3707;
-92.4000;1.0061;1.3731;
-92.1000;1.0045;1.3682;
-91.8000;1.0053;1.3780;
-91.5000;1.0053;1.3805;
-91.2000;1.0053;1.3830;
-90.9000;1.0069;1.3805;
-90.6000;1.0053;1.3707;
-90.3000;1.0077;1.3780;
-90.0000;1.0069;1.3780;
-89.7000;1.0061;1.3756;
-89.4000;1.0045;1.3780;
-89.1000;1.0053;1.3830;
-88.8000;1.0061;1.3780;
-88.5000;1.0045;1.3731;
-88.2000;1.0053;1.3707;
-87.9000;1.0053;1.3682;
-87.6000;1.0037;1.3707;
-87.3000;1.0053;1.3756;
-87.0000;1.0085;1.3928;
-86.7000;1.0053;1.3854;
-86.4000;1.0061;1.3830;
-86.1000;1.0077;1.3805;
-85.8000;1.0142;1.4002;
-85.5000;1.0028;1.3731;
-85.2000;1.0045;1.3903;
-84.9000;1.0053;1.3928;
-84.6000;1.0126;1.4100;
-84.3000;1.0045;1.3903;
-84.0000;1.0045;1.3928;
-83.7000;1.0053;1.3928;
-83.4000;1.0053;1.3879;
-83.1000;1.0053;1.3805;
-82.8000;1.0053;1.3756;
-82.5000;1.0069;1.3879;
-82.2000;1.0069;1.3756;
-81.9000;1.0053;1.3731;
-81.6000;1.0053;1.3805;
-81.3000;1.0069;1.3879;
-81.0000;1.0061;1.3805;
-80.7000;1.0061;1.3903;
-80.4000;1.0061;1.3903;
-80.1000;1.0061;1.3903;
-79.8000;1.0061;1.3977;
-79.5000;1.0077;1.3928;
-79.2000;1.0094;1.3977;
-78.9000;1.0053;1.3903;
-78.6000;1.0061;1.3977;
-78.3000;1.0061;1.4026;
-78.0000;1.0053;1.4002;
-77.7000;1.0077;1.4076;
-77.4000;1.0077;1.4002;
-77.1000;1.0085;1.3928;
-76.8000;1.0061;1.3854;
-76.5000;1.0037;1.3780;
-76.2000;1.0077;1.3830;
-75.9000;1.0061;1.3805;
-75.6000;1.0045;1.3608;
-75.3000;1.0028;1.3584;
-75.0000;1.0045;1.3633;
-74.7000;1.0077;1.3707;
-74.4000;1.0069;1.3707;
-74.1000;1.0028;1.3608;
-73.8000;1.0045;1.3731;
-73.5000;1.0053;1.3731;
-73.2000;1.0045;1.3830;
-72.9000;1.0037;1.3780;
-72.6000;1.0045;1.3682;
-72.3000;1.0061;1.3731;
-72.0000;1.0061;1.3731;
-71.7000;1.0061;1.3854;
-71.4000;1.0045;1.3928;
-71.1000;1.0053;1.3879;
-70.8000;1.0069;1.3903;
-70.5000;1.0061;1.3953;
-70.2000;1.0069;1.3854;
-69.9000;1.0061;1.3756;
-69.6000;1.0069;1.3707;
-69.3000;1.0020;1.3584;
-69.0000;1.0045;1.3805;
-68.7000;1.0037;1.3805;
-68.4000;1.0053;1.3830;
-68.1000;1.0061;1.3879;
-67.8000;1.0045;1.3879;
-67.5000;1.0069;1.3854;
-67.2000;1.0110;1.3879;
-66.9000;1.0061;1.3756;
-66.6000;1.0061;1.3805;
-66.3000;1.0077;1.3830;
-66.0000;1.0045;1.3756;
-65.7000;1.0069;1.3756;
-65.4000;1.0061;1.3633;
-65.1000;1.0061;1.3707;
-64.8000;1.0061;1.3707;
-64.5000;1.0045;1.3633;
-64.2000;1.0061;1.3657;
-63.9000;1.0053;1.3707;
-63.6000;1.0037;1.3608;
-63.3000;1.0053;1.3707;
-63.0000;1.0053;1.3633;
-62.7000;1.0053;1.3584;
-62.4000;1.0061;1.3534;
-62.1000;1.0037;1.3485;
-61.8000;1.0037;1.3362;
-61.5000;1.0053;1.3411;
-61.2000;1.0061;1.3461;
-60.9000;1.0045;1.3411;
-60.6000;1.0061;1.3485;
-60.3000;1.0077;1.3559;
-60.0000;1.0077;1.3584;
-59.7000;1.0045;1.3534;
-59.4000;1.0069;1.3559;
-59.1000;1.0069;1.3584;
-58.8000;1.0061;1.3559;
-58.5000;1.0053;1.3510;
-58.2000;1.0069;1.3559;
-57.9000;1.0077;1.3633;
-57.6000;1.0053;1.3559;
-57.3000;1.0053;1.3534;
-57.0000;1.0069;1.3608;
-56.7000;1.0061;1.3633;
-56.4000;1.0069;1.3657;
-56.1000;1.0061;1.3682;
-55.8000;1.0061;1.3633;
-55.5000;1.0094;1.3682;
-55.2000;1.0069;1.3633;
-54.9000;1.0053;1.3584;
-54.6000;1.0053;1.3584;
-54.3000;1.0069;1.3534;
-54.0000;1.0069;1.3559;
-53.7000;1.0020;1.3584;
-53.4000;1.0167;1.3977;
-53.1000;1.0077;1.3657;
-52.8000;1.0134;1.3830;
-52.5000;1.0053;1.3682;
-52.2000;1.0045;1.3657;
-51.9000;1.0045;1.3608;
-51.6000;1.0045;1.3608;
-51.3000;1.0037;1.3559;
-51.0000;1.0045;1.3461;
-50.7000;1.0045;1.3436;
-50.4000;1.0028;1.3485;
-50.1000;1.0053;1.3657;
-49.8000;1.0061;1.3731;
-49.5000;1.0020;1.3657;
-49.2000;1.0053;1.3756;
-48.9000;1.0045;1.3756;
-48.6000;1.0061;1.3756;
-48.3000;1.0085;1.3903;
-48.0000;1.0069;1.3805;
-47.7000;1.0077;1.3854;
-47.4000;1.0085;1.3879;
-47.1000;1.0053;1.3780;
-46.8000;1.0045;1.3854;
-46.5000;1.0053;1.3830;
-46.2000;1.0053;1.3830;
-45.9000;1.0045;1.3707;
-45.6000;1.0004;1.3608;
-45.3000;1.0053;1.3780;
-45.0000;1.0045;1.3780;
-44.7000;1.0061;1.3756;
-44.4000;1.0037;1.3756;
-44.1000;1.0077;1.3854;
-43.8000;1.0061;1.3854;
-43.5000;1.0020;1.3731;
-43.2000;1.0061;1.3830;
-42.9000;1.0061;1.3854;
-42.6000;1.0053;1.3879;
-42.3000;1.0053;1.3805;
-42.0000;1.0053;1.3707;
-41.7000;1.0102;1.3805;
-41.4000;1.0037;1.3707;
-41.1000;1.0053;1.3731;
-40.8000;1.0053;1.3707;
-40.5000;1.0020;1.3657;
-40.2000;1.0061;1.3780;
-39.9000;1.0053;1.3780;
-39.6000;1.0069;1.3780;
-39.3000;0.9996;1.3584;
-39.0000;1.0102;1.3830;
-38.7000;0.9996;1.3559;
-38.4000;1.0028;1.3707;
-38.1000;1.0061;1.3780;
-37.8000;1.0053;1.3756;
-37.5000;1.0012;1.3657;
-37.2000;1.0045;1.3756;
-36.9000;1.0045;1.3780;
-36.6000;1.0053;1.3830;
-36.3000;1.0037;1.3854;
-36.0000;1.0053;1.3879;
-35.7000;1.0045;1.3731;
-35.4000;1.0053;1.3633;
-35.1000;1.0045;1.3707;
-34.8000;1.0077;1.3780;
-34.5000;1.0045;1.3756;
-34.2000;1.0045;1.3780;
-33.9000;1.0037;1.3854;
-33.6000;1.0012;1.3805;
-33.3000;1.0110;1.3977;
-33.0000;1.0053;1.3854;
-32.7000;1.0053;1.3879;
-32.4000;1.0118;1.3977;
-32.1000;1.0069;1.3903;
-31.8000;1.0037;1.3805;
-31.5000;1.0102;1.3977;
-31.2000;0.9996;1.3780;
-30.9000;1.0053;1.3928;
-30.6000;1.0053;1.3830;
-30.3000;1.0020;1.3756;
-30.0000;1.0069;1.3854;
-29.7000;1.0061;1.3805;
-29.4000;1.0053;1.3805;
-29.1000;1.0069;1.3879;
-28.8000;1.0077;1.3953;
-28.5000;1.0069;1.3977;
-28.2000;1.0061;1.3903;
-27.9000;1.0061;1.3854;
-27.6000;1.0053;1.3780;
-27.3000;1.0061;1.3830;
-27.0000;1.0061;1.3830;
-26.7000;1.0061;1.3830;
-26.4000;1.0134;1.3953;
-26.1000;1.0028;1.3682;
-25.8000;1.0110;1.3879;
-25.5000;1.0045;1.3805;
-25.2000;1.0037;1.3780;
-24.9000;1.0053;1.3780;
-24.6000;1.0061;1.3830;
-24.3000;1.0045;1.3780;
-24.0000;1.0061;1.3731;
-23.7000;1.0061;1.3780;
-23.4000;1.0061;1.3830;
-23.1000;1.0053;1.3780;
-22.8000;1.0053;1.3805;
-22.5000;1.0069;1.3854;
-22.2000;1.0053;1.3830;
-21.9000;1.0045;1.3854;
-21.6000;1.0061;1.3928;
-21.3000;1.0069;1.4026;
-21.0000;1.0085;1.4002;
-20.7000;1.0069;1.3953;
-20.4000;1.0069;1.4002;
-20.1000;1.0037;1.3805;
-19.8000;1.0061;1.3830;
-19.5000;1.0045;1.3805;
-19.2000;1.0045;1.3830;
-18.9000;1.0053;1.3854;
-18.6000;0.9988;1.3780;
-18.3000;1.0045;1.3903;
-18.0000;1.0118;1.4100;
-17.7000;1.0004;1.3780;
-17.4000;1.0045;1.3780;
-17.1000;0.9996;1.3657;
-16.8000;1.0069;1.3879;
-16.5000;1.0045;1.3903;
-16.2000;1.0085;1.4100;
-15.9000;1.0069;1.4150;
-15.6000;1.0077;1.4150;
-15.3000;1.0069;1.4174;
-15.0000;1.0061;1.4150;
-14.7000;1.0037;1.4002;
-14.4000;1.0061;1.4051;
-14.1000;1.0061;1.3977;
-13.8000;1.0061;1.3928;
-13.5000;1.0126;1.4026;
-13.2000;1.0053;1.3830;
-12.9000;1.0069;1.3780;
-12.6000;1.0061;1.3805;
-12.3000;1.0045;1.3830;
-12.0000;1.0069;1.3903;
-11.7000;1.0077;1.3854;
-11.4000;1.0037;1.3756;
-11.1000;1.0061;1.3756;
-10.8000;1.0053;1.3682;
-10.5000;1.0061;1.3707;
-10.2000;1.0037;1.3682;
-9.9000;1.0037;1.3657;
-9.6000;1.0045;1.3682;
-9.3000;1.0053;1.3657;
-9.0000;1.0061;1.3682;
-8.7000;1.0061;1.3584;
-8.4000;1.0037;1.3559;
-8.1000;1.0053;1.3608;
-7.8000;1.0061;1.3633;
-7.5000;1.0069;1.3682;
-7.2000;1.0028;1.3633;
-6.9000;1.0053;1.3731;
-6.6000;1.0053;1.3830;
-6.3000;1.0045;1.3854;
-6.0000;1.0045;1.3854;
-5.7000;1.0069;1.4002;
-5.4000;1.0061;1.4100;
-5.1000;1.0061;1.4100;
-4.8000;1.0037;1.4026;
-4.5000;1.0053;1.4002;
-4.2000;1.0045;1.3977;
-3.9000;1.0053;1.4002;
-3.6000;1.0045;1.3903;
-3.3000;1.0053;1.3928;
-3.0000;1.0061;1.4002;
-2.7000;1.0069;1.3953;
-2.4000;1.0061;1.3805;
-2.1000;1.0069;1.3830;
-1.8000;1.0053;1.3854;
-1.5000;1.0045;1.3830;
-1.2000;1.0069;1.3903;
-0.9000;1.0069;1.3903;
-0.6000;1.0061;1.3830;
-0.3000;1.0061;1.3805;
0.0000;1.0061;1.3805;
0.3000;1.0232;1.3756;
0.6000;1.0435;1.4150;
0.9000;1.0663;1.4691;
1.2000;1.0810;1.5109;
1.5000;1.0924;1.5380;
1.8000;1.1070;1.5724;
2.1000;1.1127;1.5847;
2.4000;1.1193;1.5995;
2.7000;1.1290;1.6167;
3.0000;1.1323;1.6315;
3.3000;1.1372;1.6364;
3.6000;1.1404;1.6364;
3.9000;1.1445;1.6561;
4.2000;1.1502;1.6709;
4.5000;1.1526;1.6758;
4.8000;1.1502;1.6635;
5.1000;1.1567;1.6758;
5.4000;1.1608;1.6807;
5.7000;1.1616;1.6807;
6.0000;1.1624;1.6807;
6.3000;1.1705;1.6979;
6.6000;1.1713;1.7004;
6.9000;1.1705;1.6906;
7.2000;1.1713;1.6881;
7.5000;1.1730;1.6881;
7.8000;1.1762;1.7004;
8.1000;1.1754;1.7004;
8.4000;1.1770;1.7102;
8.7000;1.1746;1.7004;
9.0000;1.1795;1.7127;
9.3000;1.1819;1.7127;
9.6000;1.1852;1.7078;
9.9000;1.1844;1.6979;
10.2000;1.1868;1.6979;
10.5000;1.1876;1.7078;
10.8000;1.1852;1.7004;
11.1000;1.1876;1.7029;
11.4000;1.1884;1.6955;
11.7000;1.1901;1.7029;
12.0000;1.1884;1.7029;
12.3000;1.1909;1.7004;
12.6000;1.1909;1.6979;
12.9000;1.1925;1.7053;
13.2000;1.1941;1.6979;
13.5000;1.1982;1.7029;
13.8000;1.1941;1.7029;
14.1000;1.1958;1.7078;
14.4000;1.1966;1.7102;
14.7000;1.1966;1.7078;
15.0000;1.1966;1.6979;
15.3000;1.1958;1.6906;
15.6000;1.1998;1.6930;
15.9000;1.1990;1.6881;
16.2000;1.1990;1.6930;
16.5000;1.1998;1.6906;
16.8000;1.1974;1.6881;
17.1000;1.1982;1.6906;
17.4000;1.1998;1.6906;
17.7000;1.1990;1.6930;
18.0000;1.2007;1.6979;
18.3000;1.2007;1.7004;
18.6000;1.1998;1.6930;
18.9000;1.2007;1.7004;
19.2000;1.2039;1.7078;
19.5000;1.2023;1.7102;
19.8000;1.2039;1.7127;
20.1000;1.2031;1.7127;
20.4000;1.2063;1.7176;
20.7000;1.2039;1.7176;
21.0000;1.2047;1.7078;
21.3000;1.2055;1.7152;
21.6000;1.2055;1.7201;
21.9000;1.2007;1.7053;
22.2000;1.2047;1.7102;
22.5000;1.2047;1.6979;
22.8000;1.2047;1.6979;
23.1000;1.2063;1.7053;
23.4000;1.2063;1.7029;
23.7000;1.2047;1.7004;
24.0000;1.2072;1.7078;
24.3000;1.2088;1.7102;
24.6000;1.2072;1.7127;
24.9000;1.2161;1.7324;
25.2000;1.2072;1.7078;
25.5000;1.2080;1.7102;
25.8000;1.2088;1.7102;
26.1000;1.2088;1.7127;
26.4000;1.2080;1.7029;
26.7000;1.2096;1.7152;
27.0000;1.2080;1.7102;
27.3000;1.2137;1.7176;
27.6000;1.2080;1.7053;
27.9000;1.2072;1.7004;
28.2000;1.2104;1.7176;
28.5000;1.2112;1.7201;
28.8000;1.2080;1.7127;
29.1000;1.2096;1.7226;
29.4000;1.2096;1.7226;
29.7000;1.2120;1.7226;
30.0000;1.2104;1.7250;
30.3000;1.2104;1.7201;
30.6000;1.2096;1.7152;
30.9000;1.2120;1.7127;
31.2000;1.2112;1.7053;
31.5000;1.2080;1.6906;
31.8000;1.2112;1.6930;
32.1000;1.2120;1.6881;
32.4000;1.2096;1.6955;
32.7000;1.2104;1.6979;
33.0000;1.2153;1.7127;
33.3000;1.2120;1.7053;
33.6000;1.2104;1.7004;
33.9000;1.2112;1.7004;
34.2000;1.2129;1.7029;
34.5000;1.2129;1.7004;
34.8000;1.2137;1.7053;
35.1000;1.2129;1.7053;
35.4000;1.2145;1.7102;
35.7000;1.2137;1.7152;
36.0000;1.2129;1.7102;
36.3000;1.2137;1.7102;
36.6000;1.2153;1.7127;
36.9000;1.2137;1.7201;
37.2000;1.2129;1.7250;
37.5000;1.2112;1.7250;
37.8000;1.2129;1.7250;
38.1000;1.2129;1.7226;
38.4000;1.2153;1.7176;
38.7000;1.2088;1.7004;
39.0000;1.2112;1.7053;
39.3000;1.2129;1.7127;
39.6000;1.2137;1.7201;
39.9000;1.2120;1.7226;
40.2000;1.2137;1.7275;
40.5000;1.2129;1.7250;
40.8000;1.2104;1.7152;
41.1000;1.2137;1.7176;
41.4000;1.2129;1.7127;
41.7000;1.2129;1.7127;
42.0000;1.2120;1.7078;
42.3000;1.2112;1.7004;
42.6000;1.2129;1.7029;
42.9000;1.2137;1.7078;
43.2000;1.2129;1.7102;
43.5000;1.2129;1.7102;
43.8000;1.2145;1.7078;
44.1000;1.2137;1.7029;
44.4000;1.2137;1.7053;
44.7000;1.2153;1.7102;
45.0000;1.2145;1.7102;
45.3000;1.2153;1.7102;
45.6000;1.2129;1.6955;
45.9000;1.2129;1.7004;
46.2000;1.2161;1.7127;
46.5000;1.2145;1.7053;
46.8000;1.2137;1.6979;
47.1000;1.2145;1.7004;
47.4000;1.2153;1.7029;
47.7000;1.2169;1.7053;
48.0000;1.2153;1.6955;
48.3000;1.2153;1.6979;
48.6000;1.2169;1.7053;
48.9000;1.2145;1.7102;
49.2000;1.2129;1.7053;
49.5000;1.2145;1.7053;
49.8000;1.2145;1.7102;
50.1000;1.2153;1.7226;
50.4000;1.2145;1.7127;
50.7000;1.2153;1.7004;
51.0000;1.2161;1.7029;
51.3000;1.2145;1.7053;
51.6000;1.2161;1.6979;
51.9000;1.2161;1.7004;
52.2000;1.2161;1.7078;
52.5000;1.2104;1.7029;
52.8000;1.2153;1.7053;
53.1000;1.2161;1.7053;
53.4000;1.2153;1.7053;
53.7000;1.2161;1.7053;
54.0000;1.2226;1.7299;
54.3000;1.2104;1.6930;
54.6000;1.2145;1.7029;
54.9000;1.2169;1.7078;
55.2000;1.2137;1.6979;
55.5000;1.2145;1.7078;
55.8000;1.2153;1.7053;
56.1000;1.2177;1.7004;
56.4000;1.2169;1.7004;
56.7000;1.2153;1.7029;
57.0000;1.2161;1.7004;
57.3000;1.2161;1.7029;
57.6000;1.2145;1.6930;
57.9000;1.2153;1.7004;
58.2000;1.2145;1.7004;
58.5000;1.2169;1.6955;
58.8000;1.2145;1.6856;
59.1000;1.2161;1.6930;
59.4000;1.2137;1.6906;
59.7000;1.2153;1.6955;
60.0000;1.2161;1.7004;
60.3000;1.2161;1.6955;
60.6000;1.2169;1.7004;
60.9000;1.2153;1.7004;
61.2000;1.2161;1.6955;
61.5000;1.2153;1.7004;
61.8000;1.2161;1.6955;
62.1000;1.2169;1.6930;
62.4000;1.2177;1.6930;
62.7000;1.2120;1.6832;
63.0000;1.2145;1.6881;
63.3000;1.2145;1.6807;
63.6000;1.2112;1.6660;
63.9000;1.2137;1.6807;
64.2000;1.2145;1.6856;
64.5000;1.2153;1.6783;
64.8000;1.2145;1.6856;
65.1000;1.2145;1.6881;
65.4000;1.2153;1.6832;
65.7000;1.2153;1.6709;
66.0000;1.2153;1.6709;
66.3000;1.2112;1.6635;
66.6000;1.2145;1.6733;
66.9000;1.2104;1.6758;
67.2000;1.2137;1.6856;
67.5000;1.2153;1.6930;
67.8000;1.2169;1.7078;
68.1000;1.2137;1.7053;
68.4000;1.2153;1.7152;
68.7000;1.2186;1.7053;
69.0000;1.2169;1.6906;
69.3000;1.2161;1.6783;
69.6000;1.2153;1.6733;
69.9000;1.2153;1.6758;
70.2000;1.2161;1.6856;
70.5000;1.2112;1.6906;
70.8000;1.2161;1.7029;
71.1000;1.2145;1.7053;
71.4000;1.2096;1.6856;
71.7000;1.2161;1.7053;
72.0000;1.2169;1.7102;
72.3000;1.2177;1.7078;
72.6000;1.2137;1.7029;
72.9000;1.2145;1.7127;
73.2000;1.2186;1.7201;
73.5000;1.2145;1.7127;
73.8000;1.2145;1.7176;
74.1000;1.2186;1.7275;
74.4000;1.2169;1.7226;
74.7000;1.2145;1.7152;
75.0000;1.2145;1.7127;
75.3000;1.2047;1.6930;
75.6000;1.2186;1.7152;
75.9000;1.2161;1.7127;
76.2000;1.2023;1.6807;
76.5000;1.2088;1.7053;
76.8000;1.2243;1.7422;
77.1000;1.2153;1.7176;
77.4000;1.2145;1.7102;
77.7000;1.2137;1.7078;
78.0000;1.2153;1.7029;
78.3000;1.2137;1.6930;
78.6000;1.2145;1.6979;
78.9000;1.2153;1.6979;
79.2000;1.2161;1.7053;
79.5000;1.2088;1.6930;
79.8000;1.2137;1.7078;
80.1000;1.2153;1.7078;
80.4000;1.2153;1.7078;
80.7000;1.2161;1.7176;
81.0000;1.2161;1.7201;
81.3000;1.2120;1.7127;
81.6000;1.2153;1.7201;
81.9000;1.2169;1.7201;
82.2000;1.2177;1.7226;
82.5000;1.2169;1.7127;
82.8000;1.2145;1.7078;
83.1000;1.2169;1.7176;
83.4000;1.2177;1.7102;
83.7000;1.2137;1.7029;
84.0000;1.2161;1.7004;
84.3000;1.2145;1.6906;
84.6000;1.2194;1.7029;
84.9000;1.2169;1.6881;
85.2000;1.2137;1.6832;
85.5000;1.2137;1.6856;
85.8000;1.2161;1.6881;
86.1000;1.2169;1.6881;
86.4000;1.2153;1.6733;
86.7000;1.2153;1.6684;
87.0000;1.2153;1.6709;
87.3000;1.2145;1.6783;
87.6000;1.2145;1.6832;
87.9000;1.2129;1.6832;
88.2000;1.2137;1.6856;
88.5000;1.2161;1.7004;
88.8000;1.2153;1.6979;
89.1000;1.2137;1.7004;
89.4000;1.2153;1.6955;
89.7000;1.2177;1.6979;
90.0000;1.2161;1.6856;
90.3000;1.2153;1.6684;
90.6000;1.2161;1.6807;
90.9000;1.2153;1.6906;
91.2000;1.2169;1.6906;
91.5000;1.2210;1.6955;
91.8000;1.2161;1.6856;
92.1000;1.2161;1.6906;
92.4000;1.2169;1.6979;
92.7000;1.2169;1.6979;
93.0000;1.2137;1.6930;
93.3000;1.2120;1.6881;
93.6000;1.2177;1.7053;
93.9000;1.2169;1.7078;
94.2000;1.2161;1.7053;
94.5000;1.2153;1.7004;
94.8000;1.2169;1.6979;
95.1000;1.2169;1.7029;
95.4000;1.2202;1.6979;
95.7000;1.2161;1.6856;
96.0000;1.2161;1.6979;
96.3000;1.2161;1.7004;
96.6000;1.2153;1.7029;
96.9000;1.2169;1.7102;
97.2000;1.2169;1.7250;
97.5000;1.2177;1.7201;
97.8000;1.2169;1.7226;
98.1000;1.2145;1.7176;
98.4000;1.2088;1.6955;
98.7000;1.2153;1.7053;
99.0000;1.2129;1.6955;
99.3000;1.2186;1.7152;
99.6000;1.2129;1.7078;
99.9000;1.2120;1.7053;
100.2000;1.2055;1.6832;
100.5000;1.2072;1.6881;
100.8000;1.2145;1.6955;
101.1000;1.2161;1.6955;
101.4000;1.2161;1.7078;
101.7000;1.2145;1.7053;
102.0000;1.2145;1.7176;
102.3000;1.2112;1.7102;
102.6000;1.2104;1.7152;
102.9000;1.2194;1.7324;
103.2000;1.2153;1.7127;
103.5000;1.2137;1.7078;
103.8000;1.2153;1.7053;
104.1000;1.2145;1.7029;
104.4000;1.2202;1.7226;
104.7000;1.2137;1.7102;
105.0000;1.2145;1.7176;
105.3000;1.2145;1.7201;
105.6000;1.2153;1.7226;
105.9000;1.2129;1.7176;
106.2000;1.2153;1.7201;
106.5000;1.2153;1.7226;
106.8000;1.2153;1.7250;
107.1000;1.2153;1.7324;
107.4000;1.2161;1.7275;
107.7000;1.2169;1.7349;
108.0000;1.2153;1.7422;
108.3000;1.2153;1.7398;
108.6000;1.2186;1.7447;
108.9000;1.2161;1.7299;
109.2000;1.2145;1.7250;
109.5000;1.2145;1.7152;
109.8000;1.2153;1.7102;
110.1000;1.2145;1.7102;
110.4000;1.2137;1.7176;
110.7000;1.2153;1.7299;
111.0000;1.2145;1.7275;
111.3000;1.2161;1.7275;
111.6000;1.2161;1.7250;
111.9000;1.2153;1.7226;
112.2000;1.2145;1.7102;
112.5000;1.2153;1.7226;
112.8000;1.2145;1.7226;
113.1000;1.2137;1.7201;
113.4000;1.2129;1.7102;
113.7000;1.2145;1.7078;
114.0000;1.2153;1.7004;
114.3000;1.2129;1.7004;
114.6000;1.2161;1.7102;
114.9000;1.2177;1.7029;
115.2000;1.2161;1.7029;
115.5000;1.2120;1.6881;
115.8000;1.2226;1.7102;
116.1000;1.2153;1.7029;
116.4000;1.2161;1.7029;
116.7000;1.2177;1.7152;
117.0000;1.2169;1.7127;
117.3000;1.2137;1.7029;
117.6000;1.2137;1.7053;
117.9000;1.2137;1.7053;
118.2000;1.2153;1.7029;
118.5000;1.2120;1.6930;
118.8000;1.2234;1.7226;
119.1000;1.2161;1.7053;
119.4000;1.2129;1.7053;
119.7000;1.2137;1.7004;
120.0000;1.2153;1.7004;
120.3000;1.2153;1.7078;
120.6000;1.2153;1.7053;
120.9000;1.2145;1.7053;
121.2000;1.2161;1.7102;
121.5000;1.2218;1.7201;
121.8000;1.2161;1.7053;
122.1000;1.2145;1.7004;
122.4000;1.2096;1.7004;
122.7000;1.2096;1.6979;
123.0000;1.2161;1.7053;
123.3000;1.2088;1.6930;
123.6000;1.2145;1.7127;
123.9000;1.2120;1.7004;
124.2000;1.2169;1.7176;
124.5000;1.2177;1.7250;
124.8000;1.2137;1.7250;
125.1000;1.2137;1.7226;
125.4000;1.2153;1.7226;
125.7000;1.2153;1.7226;
126.0000;1.2153;1.7275;
126.3000;1.2137;1.7275;
126.6000;1.2153;1.7299;
126.9000;1.2161;1.7324;
127.2000;1.2153;1.7250;
127.5000;1.2129;1.7053;
127.8000;1.2137;1.7004;
128.1000;1.2120;1.6930;
128.4000;1.2153;1.6979;
128.7000;1.2137;1.6979;
129.0000;1.2137;1.6906;
129.3000;1.2145;1.6881;
129.6000;1.2169;1.6832;
129.9000;1.2145;1.6758;
130.2000;1.2145;1.6856;
130.5000;1.2137;1.6881;
130.8000;1.2120;1.6856;
131.1000;1.2145;1.6930;
131.4000;1.2145;1.6955;
131.7000;1.2137;1.6955;
132.0000;1.2161;1.7053;
132.3000;1.2137;1.7029;
132.6000;1.2145;1.7029;
132.9000;1.2137;1.7004;
133.2000;1.2120;1.7078;
133.5000;1.2145;1.7152;
133.8000;1.2145;1.7102;
134.1000;1.2137;1.7152;
134.4000;1.2145;1.7127;
134.7000;1.2129;1.7078;
135.0000;1.2137;1.6955;
135.3000;1.2137;1.7029;
135.6000;1.2169;1.7078;
135.9000;1.2145;1.7102;
136.2000;1.2129;1.7029;
136.5000;1.2137;1.7004;
136.8000;1.2137;1.6955;
137.1000;1.2129;1.6979;
137.4000;1.2137;1.7004;
137.7000;1.2129;1.6955;
138.0000;1.2169;1.7127;
138.3000;1.2129;1.7004;
138.6000;1.2161;1.7127;
138.9000;1.2104;1.7102;
139.2000;1.2137;1.7250;
139.5000;1.2145;1.7324;
139.8000;1.2161;1.7373;
140.1000;1.2169;1.7373;
140.4000;1.2145;1.7324;
140.7000;1.2145;1.7349;
141.0000;1.2145;1.7275;
141.3000;1.2169;1.7250;
141.6000;1.2145;1.7176;
141.9000;1.2096;1.7102;
142.2000;1.2153;1.7226;
142.5000;1.2202;1.7275;
142.8000;1.2145;1.7078;
143.1000;1.2129;1.7102;
143.4000;1.2129;1.7127;
143.7000;1.2145;1.7102;
144.0000;1.2145;1.7078;
144.3000;1.2153;1.7127;
144.6000;1.2137;1.7053;
144.9000;1.2169;1.7102;
145.2000;1.2153;1.7053;
145.5000;1.2145;1.7029;
145.8000;1.2129;1.6979;
146.1000;1.2137;1.7004;
146.4000;1.2137;1.7102;
146.7000;1.2145;1.7127;
147.0000;1.2120;1.7102;
147.3000;1.2186;1.7102;
147.6000;1.2153;1.6930;
147.9000;1.2153;1.6832;
148.2000;1.2129;1.6807;
148.5000;1.2145;1.6807;
148.8000;1.2145;1.6807;
149.1000;1.2129;1.6807;
149.4000;1.2129;1.6906;
149.7000;1.2137;1.6930;
150.0000;1.2145;1.6906;
150.3000;1.2120;1.6832;
150.6000;1.2129;1.6906;
150.9000;1.2129;1.6832;
151.2000;1.2137;1.6807;
151.5000;1.2137;1.6832;
151.8000;1.2137;1.6832;
152.1000;1.2153;1.6733;
152.4000;1.2161;1.6733;
152.7000;1.2153;1.6635;
153.0000;1.2153;1.6610;
153.3000;1.2161;1.6635;
153.6000;1.2137;1.6561;
153.9000;1.2145;1.6537;
154.2000;1.2137;1.6487;
154.5000;1.2137;1.6512;
154.8000;1.2153;1.6561;
155.1000;1.2137;1.6610;
155.4000;1.2145;1.6610;
155.7000;1.2137;1.6586;
156.0000;1.2145;1.6463;
156.3000;1.2145;1.6487;
156.6000;1.2145;1.6537;
156.9000;1.2161;1.6512;
157.2000;1.2153;1.6660;
157.5000;1.2161;1.6709;
157.8000;1.2177;1.6660;
158.1000;1.2161;1.6586;
158.4000;1.2161;1.6684;
158.7000;1.2202;1.6881;
159.0000;1.2153;1.6783;
159.3000;1.2137;1.6807;
159.6000;1.2153;1.6881;
159.9000;1.2145;1.6733;
160.2000;1.2169;1.6856;
160.5000;1.2153;1.6881;
160.8000;1.2145;1.6881;
161.1000;1.2137;1.6856;
161.4000;1.2145;1.6930;
161.7000;1.2137;1.6807;
162.0000;1.2153;1.6832;
162.3000;1.2137;1.6856;
162.6000;1.2145;1.6832;
162.9000;1.2145;1.6856;
163.2000;1.2137;1.6832;
163.5000;1.2120;1.6733;
163.8000;1.2129;1.6807;
164.1000;1.2145;1.6783;
164.4000;1.2096;1.6733;
164.7000;1.2023;1.6586;
165.0000;1.2137;1.6832;
165.3000;1.2137;1.6930;
165.6000;1.2145;1.6906;
165.9000;1.2129;1.6783;
166.2000;1.2096;1.6733;
166.5000;1.2145;1.6856;
166.8000;1.2145;1.6856;
167.1000;1.2120;1.6856;
167.4000;1.2145;1.6979;
167.7000;1.2145;1.6955;
168.0000;1.2120;1.6856;
168.3000;1.2137;1.6856;
168.6000;1.2137;1.6930;
168.9000;1.2137;1.6807;
169.2000;1.2145;1.6906;
169.5000;1.2145;1.6832;
169.8000;1.2218;1.6881;
170.1000;1.2137;1.6660;
170.4000;1.2177;1.6783;
170.7000;1.2137;1.6684;
171.0000;1.2104;1.6660;
171.3000;1.2153;1.6832;
171.6000;1.2129;1.6709;
171.9000;1.2088;1.6610;
172.2000;1.2129;1.6684;
172.5000;1.2104;1.6635;
172.8000;1.2120;1.6660;
173.1000;1.2137;1.6733;
173.4000;1.2186;1.6807;
173.7000;1.2137;1.6709;
174.0000;1.2112;1.6709;
174.3000;1.2145;1.6881;
174.6000;1.2145;1.6856;
174.9000;1.2137;1.6783;
175.2000;1.2129;1.6635;
175.5000;1.2137;1.6660;
175.8000;1.2137;1.6660;
176.1000;1.2153;1.6684;
176.4000;1.2129;1.6709;
176.7000;1.2129;1.6783;
177.0000;1.2137;1.6832;
177.3000;1.2137;1.6856;
177.6000;1.2129;1.6832;
177.9000;1.2129;1.6906;
178.2000;1.2145;1.6930;
178.5000;1.2145;1.6979;
178.8000;1.2137;1.6930;
179.1000;1.2129;1.6906;
179.4000;1.2120;1.6881;
179.7000;1.2112;1.6758;
180.0000;1.2129;1.6733;
180.3000;1.2145;1.6783;
180.6000;1.2120;1.6660;
180.9000;1.2120;1.6709;
181.2000;1.2161;1.6856;
181.5000;1.2120;1.6856;
181.8000;1.2088;1.6807;
182.1000;1.2112;1.6906;
182.4000;1.2137;1.6906;
182.7000;1.2120;1.6807;
183.0000;1.2129;1.6930;
183.3000;1.2137;1.6930;
183.6000;1.2129;1.6881;
183.9000;1.2137;1.6856;
184.2000;1.2137;1.6881;
184.5000;1.2153;1.6856;
184.8000;1.2120;1.6832;
185.1000;1.2129;1.6881;
185.4000;1.2096;1.6733;
185.7000;1.2129;1.6783;
186.0000;1.2145;1.6832;
186.3000;1.2137;1.6832;
186.6000;1.2161;1.6856;
186.9000;1.2137;1.6832;
187.2000;1.2055;1.6512;
187.5000;1.2137;1.6586;
187.8000;1.2137;1.6610;
188.1000;1.2137;1.6610;
188.4000;1.2145;1.6610;
188.7000;1.2145;1.6684;
189.0000;1.2153;1.6733;
189.3000;1.2145;1.6783;
189.6000;1.2137;1.6733;
189.9000;1.2137;1.6856;
190.2000;1.2129;1.6881;
190.5000;1.2129;1.6906;
190.8000;1.2137;1.6930;
191.1000;1.2129;1.6979;
191.4000;1.2072;1.6807;
191.7000;1.2112;1.6856;
192.0000;1.2137;1.6930;
192.3000;1.2104;1.6881;
192.6000;1.2137;1.6979;
192.9000;1.2129;1.6906;
193.2000;1.2153;1.7029;
193.5000;1.2104;1.6930;
193.8000;1.2120;1.6955;
194.1000;1.2129;1.6930;
194.4000;1.2129;1.6979;
194.7000;1.2104;1.6979;
195.0000;1.2129;1.7053;
195.3000;1.2137;1.6979;
195.6000;1.2080;1.6881;
195.9000;1.2153;1.7078;
196.2000;1.2129;1.7004;
196.5000;1.2202;1.7127;
196.8000;1.2088;1.6856;
197.1000;1.2112;1.6881;
197.4000;1.2120;1.6906;
197.7000;1.2120;1.6930;
198.0000;1.2120;1.7004;
198.3000;1.2129;1.7004;
198.6000;1.2120;1.7029;
198.9000;1.2202;1.7152;
199.2000;1.2137;1.7004;
199.5000;1.2145;1.6930;
199.8000;1.2145;1.6856;
200.1000;1.2153;1.6906;
200.4000;1.2137;1.6955;
200.7000;1.2096;1.6783;
201.0000;1.2129;1.6807;
201.3000;1.2129;1.6709;
201.6000;1.2112;1.6709;
201.9000;1.2120;1.6783;
202.2000;1.2129;1.6856;
202.5000;1.2120;1.6783;
202.8000;1.2137;1.6807;
203.1000;1.2120;1.6807;
203.4000;1.2120;1.6709;
203.7000;1.2145;1.6733;
204.0000;1.2145;1.6807;
204.3000;1.2153;1.6881;
204.6000;1.2129;1.6832;
204.9000;1.2120;1.6881;
205.2000;1.2104;1.6906;
205.5000;1.2112;1.6930;
205.8000;1.2186;1.7078;
206.1000;1.2137;1.6979;
206.4000;1.2120;1.6979;
206.7000;1.2120;1.6906;
207.0000;1.2112;1.6807;
207.3000;1.2120;1.6783;
207.6000;1.2120;1.6758;
207.9000;1.2145;1.6832;
208.2000;1.2137;1.6832;
208.5000;1.2137;1.6930;
208.8000;1.2153;1.6955;
209.1000;1.2096;1.6856;
209.4000;1.2120;1.6856;
209.7000;1.2137;1.6930;
210.0000;1.2112;1.6906;
210.3000;1.2120;1.6930;
210.6000;1.2129;1.6881;
210.9000;1.2120;1.6832;
211.2000;1.2096;1.6783;
211.5000;1.2120;1.6881;
211.8000;1.2112;1.6930;
212.1000;1.2120;1.6906;
212.4000;1.2104;1.6832;
212.7000;1.2096;1.6733;
213.0000;1.2104;1.6758;
213.3000;1.2120;1.6930;
213.6000;1.2055;1.6783;
213.9000;1.2161;1.7004;
214.2000;1.2153;1.7053;
214.5000;1.2120;1.6955;
214.8000;1.2120;1.6881;
215.1000;1.2137;1.6906;
215.4000;1.2169;1.6930;
215.7000;1.2161;1.6906;
216.0000;1.2161;1.6906;
216.3000;1.2120;1.6832;
216.6000;1.2145;1.6881;
216.9000;1.2145;1.6832;
217.2000;1.2145;1.6906;
217.5000;1.2137;1.6906;
217.8000;1.2137;1.6881;
218.1000;1.2153;1.6979;
218.4000;1.2145;1.7053;
218.7000;1.2088;1.6881;
219.0000;1.2120;1.7004;
219.3000;1.2129;1.7053;
219.6000;1.2137;1.7029;
219.9000;1.2129;1.7004;
220.2000;1.2072;1.6881;
220.5000;1.2120;1.7029;
220.8000;1.2137;1.7152;
221.1000;1.2120;1.7176;
221.4000;1.2104;1.7102;
221.7000;1.2120;1.7029;
222.0000;1.2129;1.7102;
222.3000;1.2120;1.7127;
222.6000;1.2112;1.7078;
222.9000;1.2120;1.7102;
223.2000;1.2112;1.7078;
223.5000;1.2129;1.7053;
223.8000;1.2096;1.6930;
224.1000;1.2104;1.6979;
224.4000;1.2129;1.7004;
224.7000;1.2120;1.6930;
225.0000;1.2120;1.6930;
225.3000;1.2129;1.6955;
225.6000;1.2096;1.6807;
225.9000;1.2120;1.7004;
226.2000;1.2104;1.6955;
226.5000;1.2112;1.6906;
226.8000;1.2104;1.6906;
227.1000;1.2129;1.6979;
227.4000;1.2112;1.6906;
227.7000;1.2120;1.6881;
228.0000;1.2120;1.7029;
228.3000;1.2104;1.7004;
228.6000;1.2120;1.6979;
228.9000;1.2112;1.7053;
229.2000;1.2112;1.7078;
229.5000;1.2120;1.7102;
229.8000;1.2112;1.7102;
230.1000;1.2120;1.7078;
230.4000;1.2096;1.7053;
230.7000;1.2129;1.7152;
231.0000;1.2112;1.7102;
231.3000;1.2129;1.7078;
231.6000;1.2120;1.7053;
231.9000;1.2120;1.7053;
232.2000;1.2104;1.7004;
232.5000;1.2112;1.7004;
232.8000;1.2072;1.6856;
233.1000;1.2104;1.6930;
233.4000;1.2145;1.7004;
233.7000;1.2112;1.7004;
234.0000;1.2112;1.7078;
234.3000;1.2112;1.7053;
234.6000;1.2104;1.7029;
234.9000;1.2112;1.6979;
235.2000;1.2120;1.7029;
235.5000;1.2129;1.7004;
235.8000;1.2120;1.7004;
236.1000;1.2129;1.7078;
236.4000;1.2104;1.7029;
236.7000;1.2096;1.6955;
237.0000;1.2120;1.7102;
237.3000;1.2137;1.7102;
237.6000;1.2137;1.7152;
237.9000;1.2120;1.7102;
238.2000;1.2112;1.7004;
238.5000;1.2129;1.6979;
238.8000;1.2112;1.7029;
239.1000;1.2129;1.6979;
239.4000;1.2120;1.6906;
239.7000;1.2104;1.6832;
240.0000;1.2112;1.6955;
240.3000;1.2129;1.7004;
240.6000;1.2145;1.6955;
240.9000;1.2072;1.6832;
241.2000;1.2120;1.6856;
241.5000;1.2112;1.6881;
241.8000;1.2104;1.6906;
242.1000;1.2072;1.6783;
242.4000;1.2112;1.6856;
242.7000;1.2145;1.6979;
243.0000;1.2104;1.6955;
243.3000;1.2080;1.6955;
243.6000;1.2104;1.6930;
243.9000;1.2096;1.6979;
244.2000;1.2104;1.7004;
244.5000;1.2088;1.7004;
244.8000;1.2112;1.7053;
245.1000;1.2104;1.7029;
245.4000;1.2104;1.7078;
245.7000;1.2129;1.7127;
246.0000;1.2120;1.7102;
246.3000;1.2129;1.7078;
246.6000;1.2137;1.7053;
246.9000;1.2129;1.7078;
247.2000;1.2129;1.7053;
247.5000;1.2129;1.7053;
247.8000;1.2104;1.6979;
248.1000;1.2129;1.7053;
248.4000;1.2104;1.6979;
248.7000;1.2194;1.7176;
249.0000;1.2137;1.7127;
249.3000;1.2112;1.7029;
249.6000;1.2120;1.7029;
249.9000;1.2112;1.6955;
250.2000;1.2137;1.6930;
250.5000;1.2120;1.6906;
250.8000;1.2120;1.6832;
251.1000;1.2120;1.6832;
251.4000;1.2112;1.6783;
251.7000;1.2088;1.6758;
252.0000;1.2112;1.6783;
252.3000;1.2120;1.6783;
252.6000;1.2129;1.6733;
252.9000;1.2104;1.6684;
253.2000;1.2202;1.6979;
253.5000;1.2120;1.6807;
253.8000;1.2153;1.6881;
254.1000;1.2137;1.6832;
254.4000;1.2145;1.6783;
254.7000;1.2112;1.6807;
255.0000;1.2112;1.6856;
255.3000;1.2145;1.6856;
255.6000;1.2104;1.6807;
255.9000;1.2120;1.6783;
256.2000;1.2137;1.6906;
256.5000;1.2120;1.6930;
256.8000;1.2129;1.6979;
257.1000;1.2129;1.6930;
257.4000;1.2120;1.6906;
257.7000;1.2129;1.6881;
258.0000;1.2112;1.6832;
258.3000;1.2120;1.6881;
258.6000;1.2112;1.6930;
258.9000;1.2072;1.6856;
259.2000;1.2015;1.6758;
259.5000;1.2112;1.7004;
259.8000;1.2112;1.7004;
260.1000;1.2145;1.6979;
260.4000;1.2088;1.6881;
260.7000;1.2104;1.6881;
261.0000;1.2096;1.6881;
261.3000;1.2112;1.6832;
261.6000;1.2112;1.6906;
261.9000;1.2129;1.6906;
262.2000;1.2120;1.6832;
262.5000;1.2096;1.6684;
262.8000;1.2137;1.6881;
263.1000;1.2153;1.6979;
263.4000;1.2129;1.6906;
263.7000;1.2112;1.6930;
264.0000;1.2112;1.6930;
264.3000;1.2112;1.6930;
264.6000;1.2088;1.6930;
264.9000;1.2120;1.7004;
265.2000;1.2112;1.6979;
265.5000;1.2112;1.6979;
265.8000;1.2218;1.7250;
266.1000;1.2104;1.7053;
266.4000;1.2096;1.7102;
266.7000;1.2104;1.7152;
267.0000;1.2112;1.7053;
267.3000;1.2104;1.7053;
267.6000;1.2112;1.7053;
267.9000;1.2088;1.6955;
268.2000;1.2145;1.7078;
268.5000;1.2104;1.7029;
268.8000;1.2104;1.6979;
269.1000;1.2072;1.6930;
269.4000;1.2088;1.6979;
269.7000;1.2088;1.7029;
270.0000;1.2088;1.7127;
270.3000;1.2104;1.7152;
270.6000;1.2063;1.6979;
270.9000;1.2104;1.7078;
271.2000;1.2088;1.7152;
271.5000;1.2096;1.7201;
271.8000;1.2096;1.7127;
272.1000;1.2112;1.7102;
272.4000;1.2104;1.7152;
272.7000;1.2129;1.7201;
273.0000;1.2129;1.7102;
273.3000;1.2145;1.7102;
273.6000;1.2088;1.7102;
273.9000;1.2096;1.7176;
274.2000;1.2096;1.7201;
274.5000;1.2096;1.7127;
274.8000;1.2104;1.7226;
275.1000;1.2104;1.7250;
275.4000;1.2104;1.7226;
275.7000;1.2096;1.7250;
276.0000;1.2088;1.7102;
276.3000;1.2055;1.6979;
276.6000;1.2088;1.7127;
276.9000;1.2096;1.7127;
277.2000;1.2120;1.7201;
277.5000;1.2129;1.7201;
277.8000;1.2080;1.7029;
278.1000;1.2104;1.7226;
278.4000;1.2120;1.7275;
278.7000;1.2112;1.7299;
279.0000;1.2104;1.7250;
279.3000;1.2104;1.7201;
279.6000;1.2096;1.7176;
279.9000;1.2104;1.7127;
280.2000;1.2112;1.7176;
280.5000;1.2096;1.7152;
280.8000;1.2112;1.7152;
281.1000;1.2104;1.7226;
281.4000;1.2112;1.7250;
281.7000;1.2088;1.7176;
282.0000;1.2088;1.7226;
282.3000;1.2104;1.7275;
282.6000;1.2112;1.7275;
282.9000;1.2096;1.7226;
283.2000;1.2096;1.7250;
283.5000;1.2112;1.7373;
283.8000;1.2112;1.7250;
284.1000;1.2080;1.7201;
284.4000;1.2137;1.7324;
284.7000;1.2112;1.7275;
285.0000;1.2104;1.7250;
285.3000;1.2104;1.7102;
285.6000;1.2096;1.7176;
285.9000;1.2055;1.7029;
286.2000;1.2088;1.7053;
286.5000;1.2096;1.7102;
286.8000;1.2112;1.7127;
287.1000;1.2112;1.7127;
287.4000;1.2153;1.7226;
287.7000;1.2072;1.7078;
288.0000;1.2072;1.7078;
288.3000;1.2088;1.7102;
288.6000;1.2112;1.7226;
288.9000;1.2120;1.7226;
289.2000;1.2104;1.7176;
289.5000;1.2137;1.7275;
289.8000;1.2031;1.6930;
290.1000;1.2096;1.7053;
290.4000;1.2039;1.6955;
290.7000;1.2072;1.7029;
291.0000;1.2120;1.7102;
291.3000;1.2080;1.7004;
291.6000;1.2104;1.7102;
291.9000;1.2096;1.7029;
292.2000;1.2104;1.6979;
292.5000;1.2104;1.7053;
292.8000;1.2096;1.7078;
293.1000;1.2096;1.7029;
293.4000;1.2145;1.7127;
293.7000;1.2096;1.7029;
294.0000;1.2112;1.7102;
294.3000;1.2096;1.7053;
294.6000;1.2080;1.7029;
294.9000;1.2096;1.7029;
295.2000;1.2120;1.7127;
295.5000;1.2072;1.7029;
295.8000;1.2137;1.7176;
296.1000;1.2096;1.7176;
296.4000;1.2104;1.7250;
296.7000;1.2055;1.7102;
297.0000;1.2096;1.7102;
297.3000;1.2096;1.7176;
297.6000;1.2104;1.7201;
297.9000;1.2096;1.7176;
298.2000;1.2104;1.7127;
298.5000;1.2120;1.7053;
298.8000;1.2120;1.6979;
299.1000;1.2137;1.7029;
299.4000;1.2112;1.6979;
299.7000;1.2096;1.6979;
300.0000;1.2096;1.6955;
300.3000;1.2104;1.6979;
300.6000;1.2104;1.7029;
300.9000;1.2023;1.6856;
301.2000;1.2096;1.7053;
301.5000;1.2088;1.7029;
301.8000;1.2161;1.7275;
302.1000;1.2072;1.7152;
302.4000;1.2080;1.7127;
302.7000;1.2080;1.7176;
303.0000;1.2104;1.7349;
303.3000;1.2112;1.7324;
303.6000;1.2104;1.7299;
303.9000;1.2120;1.7250;
304.2000;1.2096;1.7226;
304.5000;1.2080;1.7176;
304.8000;1.2096;1.7102;
305.1000;1.2153;1.7176;
305.4000;1.2112;1.7102;
305.7000;1.2104;1.7127;
306.0000;1.2088;1.7078;
306.3000;1.2072;1.7053;
306.6000;1.2055;1.6955;
306.9000;1.2080;1.7102;
307.2000;1.2096;1.7152;
307.5000;1.2088;1.7053;
307.8000;1.2088;1.7176;
308.1000;1.2088;1.7201;
308.4000;1.2120;1.7226;
308.7000;1.2104;1.7176;
309.0000;1.2112;1.7275;
309.3000;1.2080;1.7250;
309.6000;1.2088;1.7275;
309.9000;1.2063;1.7226;
310.2000;1.2088;1.7275;
310.5000;1.2072;1.7250;
310.8000;1.2096;1.7299;
311.1000;1.2080;1.7250;
311.4000;1.2080;1.7275;
311.7000;1.2072;1.7201;
312.0000;1.2145;1.7349;
312.3000;1.2112;1.7201;
312.6000;1.2088;1.7102;
312.9000;1.2023;1.6979;
313.2000;1.2096;1.7176;
313.5000;1.2072;1.7053;
313.8000;1.2080;1.7152;
314.1000;1.2080;1.7226;
314.4000;1.2104;1.7152;
314.7000;1.2153;1.7299;
315.0000;1.2120;1.7226;
315.3000;1.2186;1.7349;
315.6000;1.2080;1.7152;
315.9000;1.2063;1.7152;
316.2000;1.2104;1.7201;
316.5000;1.2080;1.7102;
316.8000;1.2104;1.7029;
317.1000;1.2112;1.7078;
317.4000;1.2088;1.7102;
317.7000;1.2096;1.7127;
318.0000;1.2112;1.7127;
318.3000;1.2088;1.7127;
318.6000;1.2104;1.7127;
318.9000;1.2080;1.7078;
319.2000;1.2080;1.7102;
319.5000;1.2104;1.7078;
319.8000;1.2063;1.7029;
320.1000;1.2088;1.7053;
320.4000;1.2072;1.6979;
320.7000;1.2104;1.7053;
321.0000;1.2088;1.7102;
321.3000;1.2080;1.7078;
321.6000;1.2080;1.7127;
321.9000;1.2096;1.7078;
322.2000;1.2096;1.7127;
322.5000;1.2080;1.7102;
322.8000;1.2072;1.7004;
323.1000;1.2072;1.7053;
323.4000;1.2120;1.7176;
323.7000;1.2096;1.7004;
324.0000;1.2072;1.6955;
324.3000;1.2088;1.6979;
324.6000;1.2088;1.6930;
324.9000;1.2096;1.6930;
325.2000;1.2088;1.6930;
325.5000;1.2104;1.7102;
325.8000;1.2096;1.7127;
326.1000;1.2112;1.7250;
326.4000;1.2120;1.7275;
326.7000;1.2088;1.7176;
327.0000;1.2096;1.7127;
327.3000;1.2096;1.7250;
327.6000;1.2104;1.7250;
327.9000;1.2104;1.7201;
328.2000;1.2096;1.7152;
328.5000;1.2153;1.7324;
328.8000;1.2039;1.7004;
329.1000;1.2080;1.7053;
329.4000;1.2072;1.7152;
329.7000;1.2096;1.7226;
330.0000;1.2088;1.7201;
330.3000;1.2072;1.7152;
330.6000;1.2088;1.7127;
330.9000;1.2145;1.7176;
331.2000;1.2120;1.7102;
331.5000;1.2120;1.7078;
331.8000;1.2104;1.7102;
332.1000;1.2120;1.7053;
332.4000;1.2039;1.6930;
332.7000;1.2129;1.7102;
333.0000;1.2096;1.7053;
333.3000;1.2096;1.7078;
333.6000;1.2104;1.7053;
333.9000;1.2096;1.7004;
334.2000;1.2096;1.7029;
334.5000;1.2104;1.7078;
334.8000;1.2104;1.7102;
335.1000;1.2096;1.7053;
335.4000;1.2112;1.7053;
335.7000;1.2096;1.7053;
336.0000;1.2104;1.7053;
336.3000;1.2120;1.7127;
336.6000;1.2088;1.7078;
336.9000;1.2080;1.7078;
337.2000;1.2096;1.7053;
337.5000;1.2088;1.7053;
337.8000;1.2096;1.7053;
338.1000;1.2096;1.7029;
338.4000;1.2104;1.6955;
338.7000;1.2096;1.6955;
339.0000;1.2096;1.6979;
339.3000;1.2096;1.7053;
339.6000;1.2055;1.7053;
339.9000;1.2096;1.7053;
340.2000;1.2112;1.7029;
340.5000;1.2096;1.7053;
340.8000;1.2112;1.7102;
341.1000;1.2096;1.7152;
341.4000;1.2096;1.7152;
341.7000;1.2072;1.7078;
342.0000;1.2104;1.7152;
342.3000;1.2104;1.7152;
342.6000;1.2120;1.7201;
342.9000;1.2104;1.7324;
343.2000;1.2104;1.7275;
343.5000;1.2088;1.7201;
343.8000;1.2104;1.7152;
344.1000;1.2096;1.7053;
344.4000;1.2080;1.7029;
344.7000;1.2088;1.7053;
345.0000;1.2080;1.7201;
345.3000;1.2096;1.7250;
345.6000;1.2104;1.7250;
345.9000;1.2088;1.7201;
346.2000;1.2088;1.7226;
346.5000;1.2104;1.7176;
346.8000;1.2088;1.7078;
347.1000;1.2080;1.7053;
347.4000;1.2063;1.6930;
347.7000;1.2096;1.7102;
348.0000;1.2080;1.7152;
348.3000;1.2096;1.7324;
348.6000;1.2080;1.7324;
348.9000;1.2063;1.7275;
349.2000;1.2080;1.7373;
349.5000;1.2088;1.7373;
349.8000;1.2137;1.7373;
350.1000;1.2072;1.7299;
350.4000;1.2080;1.7275;
350.7000;1.2080;1.7299;
351.0000;1.2080;1.7299;
351.3000;1.2088;1.7349;
351.6000;1.2096;1.7349;
351.9000;1.2104;1.7250;
352.2000;1.2080;1.7152;
352.5000;1.2063;1.7102;
352.8000;1.2104;1.7176;
353.1000;1.2063;1.7029;
353.4000;1.2104;1.7127;
353.7000;1.2096;1.7102;
354.0000;1.2063;1.7004;
354.3000;1.2088;1.7053;
354.6000;1.2080;1.7078;
354.9000;1.2072;1.7004;
355.2000;1.2080;1.7102;
355.5000;1.2104;1.7127;
355.8000;1.2112;1.7152;
356.1000;1.2080;1.7127;
356.4000;1.2096;1.7078;
356.7000;1.2088;1.7201;
357.0000;1.2104;1.7275;
357.3000;1.2088;1.7250;
357.6000;1.2072;1.7226;
357.9000;1.2096;1.7324;
358.2000;1.2137;1.7349;
358.5000;1.2072;1.7127;
358.8000;1.2072;1.7152;
359.1000;1.2039;1.7053;
359.4000;1.2072;1.7102;
359.7000;1.2120;1.7152;
360.0000;1.2072;1.7053;
360.3000;1.2072;1.7078;
360.6000;1.2088;1.7127;
360.9000;1.2072;1.7152;
361.2000;1.2072;1.7102;
361.5000;1.2080;1.7004;
361.8000;1.2080;1.7053;
362.1000;1.2088;1.7127;
362.4000;1.2063;1.7053;
362.7000;1.2080;1.7127;
363.0000;1.2080;1.7078;
363.3000;1.2088;1.7053;
363.6000;1.2088;1.7053;
363.9000;1.2096;1.7053;
364.2000;1.2104;1.7201;
364.5000;1.2080;1.7226;
364.8000;1.2104;1.7275;
365.1000;1.2063;1.7127;
365.4000;1.2080;1.7176;
365.7000;1.2104;1.7226;
366.0000;1.2088;1.7250;
366.3000;1.2104;1.7250;
366.6000;1.2120;1.7250;
366.9000;1.2096;1.7152;
367.2000;1.2096;1.7152;
367.5000;1.2096;1.7201;
367.8000;1.2104;1.7226;
368.1000;1.2088;1.7152;
368.4000;1.2080;1.7127;
368.7000;1.2096;1.7127;
369.0000;1.2088;1.7127;
369.3000;1.2080;1.7152;
369.6000;1.2153;1.7324;
369.9000;1.2080;1.7176;
370.2000;1.2055;1.7127;
370.5000;1.2080;1.7176;
370.8000;1.2088;1.7127;
371.1000;1.2088;1.7053;
371.4000;1.2072;1.7004;
371.7000;1.2063;1.6955;
372.0000;1.2072;1.6906;
372.3000;1.2080;1.7004;
372.6000;1.2055;1.7029;
372.9000;1.2063;1.7029;
373.2000;1.2039;1.7053;
373.5000;1.2080;1.7250;
373.8000;1.2080;1.7226;
374.1000;1.2072;1.7250;
374.4000;1.2080;1.7176;
374.7000;1.2088;1.7201;
375.0000;1.2080;1.7201;
375.3000;1.2072;1.7152;
375.6000;1.2137;1.7373;
375.9000;1.2080;1.7250;
376.2000;1.2047;1.7176;
376.5000;1.2072;1.7226;
376.8000;1.2072;1.7299;
377.1000;1.2080;1.7250;
377.4000;1.2129;1.7398;
377.7000;1.2080;1.7299;
378.0000;1.2072;1.7201;
378.3000;1.2112;1.7250;
378.6000;1.2096;1.7176;
378.9000;1.2088;1.7176;
379.2000;1.2063;1.7201;
379.5000;1.2055;1.7102;
379.8000;1.2080;1.7152;
380.1000;1.2072;1.7250;
380.4000;1.2072;1.7226;
380.7000;1.2088;1.7176;
381.0000;1.2088;1.7152;
381.3000;1.2096;1.7226;
381.6000;1.2055;1.7152;
381.9000;1.2088;1.7176;
382.2000;1.2072;1.7226;
382.5000;1.2088;1.7226;
382.8000;1.2063;1.7176;
383.1000;1.2072;1.7176;
383.4000;1.2080;1.7176;
383.7000;1.2072;1.7152;
384.0000;1.2072;1.7176;
384.3000;1.2080;1.7201;
384.6000;1.2047;1.7078;
384.9000;1.2096;1.7029;
385.2000;1.2096;1.7053;
385.5000;1.2088;1.7127;
385.8000;1.2072;1.7226;
386.1000;1.2080;1.7299;
386.4000;1.2072;1.7250;
386.7000;1.2096;1.7299;
387.0000;1.2072;1.7201;
387.3000;1.2072;1.7299;
387.6000;1.2063;1.7373;
387.9000;1.2080;1.7422;
388.2000;1.2023;1.7226;
388.5000;1.2063;1.7349;
388.8000;1.2072;1.7398;
389.1000;1.2072;1.7324;
389.4000;1.2072;1.7250;
389.7000;1.2072;1.7275;
390.0000;1.2072;1.7250;
390.3000;1.2088;1.7226;
390.6000;1.2063;1.7176;
390.9000;1.2080;1.7176;
391.2000;1.2088;1.7226;
391.5000;1.2072;1.7226;
391.8000;1.2088;1.7226;
392.1000;1.2063;1.7152;
392.4000;1.2063;1.7102;
392.7000;1.2047;1.7176;
393.0000;1.2055;1.7176;
393.3000;1.2039;1.7176;
393.6000;1.2047;1.7053;
393.9000;1.2063;1.7176;
394.2000;1.2072;1.7201;
394.5000;1.2055;1.7102;
394.8000;1.2072;1.7127;
395.1000;1.2104;1.7226;
395.4000;1.2063;1.7127;
395.7000;1.2063;1.7102;
396.0000;1.2072;1.7127;
396.3000;1.2120;1.7275;
396.6000;1.2112;1.7324;
396.9000;1.2080;1.7152;
397.2000;1.2096;1.7176;
397.5000;1.2088;1.7226;
397.8000;1.2080;1.7250;
398.1000;1.2080;1.7250;
398.4000;1.2063;1.7176;
398.7000;1.2039;1.7201;
399.0000;1.2088;1.7201;
399.3000;1.2047;1.7127;
399.6000;1.1990;1.6955;
399.9000;1.2072;1.7127;
400.2000;1.2080;1.7176;
400.5000;1.2088;1.7201;
400.8000;1.2072;1.7127;
401.1000;1.2080;1.7127;
401.4000;1.2039;1.7102;
401.7000;1.2063;1.7102;
402.0000;1.2080;1.7102;
402.3000;1.2063;1.7078;
402.6000;1.2072;1.7152;
402.9000;1.2063;1.7127;
403.2000;1.2031;1.7102;
403.5000;1.2063;1.7226;
403.8000;1.2063;1.7275;
404.1000;1.2072;1.7324;
404.4000;1.2047;1.7275;
404.7000;1.2063;1.7226;
405.0000;1.2080;1.7226;
405.3000;1.2072;1.7176;
405.6000;1.2063;1.7127;
405.9000;1.2072;1.7201;
406.2000;1.2055;1.7176;
406.5000;1.2072;1.7250;
406.8000;1.2080;1.7250;
407.1000;1.2063;1.7201;
407.4000;1.2047;1.7201;
407.7000;1.2039;1.7250;
408.0000;1.2039;1.7250;
408.3000;1.2055;1.7226;
408.6000;1.2063;1.7176;
408.9000;1.2055;1.7226;
409.2000;1.2063;1.7250;
409.5000;1.2047;1.7176;
409.8000;1.2072;1.7152;
410.1000;1.2055;1.7176;
410.4000;1.2055;1.7226;
410.7000;1.2072;1.7226;
411.0000;1.2088;1.7250;
411.3000;1.2080;1.7275;
411.6000;1.2055;1.7176;
411.9000;1.2080;1.7226;
412.2000;1.2088;1.7250;
412.5000;1.2072;1.7226;
412.8000;1.2047;1.7127;
413.1000;1.2096;1.7275;
413.4000;1.2088;1.7250;
413.7000;1.2055;1.7250;
414.0000;1.2080;1.7299;
414.3000;1.2072;1.7250;
414.6000;1.2080;1.7250;
414.9000;1.2063;1.7176;
415.2000;1.2072;1.7201;
415.5000;1.2055;1.7152;
415.8000;1.2080;1.7152;
416.1000;1.2088;1.7152;
416.4000;1.2055;1.7102;
416.7000;1.2080;1.7152;
417.0000;1.2063;1.7152;
417.3000;1.2063;1.7152;
417.6000;1.2055;1.7176;
417.9000;1.2055;1.7201;
418.2000;1.2047;1.7152;
418.5000;1.2080;1.7176;
418.8000;1.2063;1.7102;
419.1000;1.2063;1.7053;
419.4000;1.2112;1.7152;
419.7000;1.2047;1.6906;
420.0000;1.2072;1.6955;
420.3000;1.2055;1.6979;
420.6000;1.2080;1.7004;
420.9000;1.1998;1.6807;
421.2000;1.2080;1.6955;
421.5000;1.2055;1.6906;
421.8000;1.2088;1.6979;
422.1000;1.2047;1.7004;
422.4000;1.2104;1.7127;
422.7000;1.2015;1.6930;
423.0000;1.2055;1.7004;
423.3000;1.2072;1.7102;
423.6000;1.2063;1.7053;
423.9000;1.2072;1.7102;
424.2000;1.2055;1.7078;
424.5000;1.2080;1.7201;
424.8000;1.2104;1.7176;
425.1000;1.2088;1.7053;
425.4000;1.1982;1.6832;
425.7000;1.2055;1.7053;
426.0000;1.2039;1.7004;
426.3000;1.2096;1.7078;
426.6000;1.2072;1.6979;
426.9000;1.2072;1.7029;
427.2000;1.2104;1.7029;
427.5000;1.2063;1.7029;
427.8000;1.2080;1.7053;
428.1000;1.2055;1.7127;
428.4000;1.2104;1.7226;
428.7000;1.2072;1.7201;
429.0000;1.2072;1.7102;
429.3000;1.2063;1.7004;
429.6000;1.2055;1.6955;
429.9000;1.2072;1.6930;
430.2000;1.2055;1.6930;
430.5000;1.2063;1.6979;
430.8000;1.2072;1.7004;
431.1000;1.2063;1.7053;
431.4000;1.2063;1.7127;
431.7000;1.2063;1.7201;
432.0000;1.2055;1.7226;
432.3000;1.2063;1.7250;
432.6000;1.2055;1.7176;
432.9000;1.2072;1.7176;
433.2000;1.2063;1.7152;
433.5000;1.2047;1.7078;
433.8000;1.2072;1.7029;
434.1000;1.2047;1.7004;
434.4000;1.2063;1.7004;
434.7000;1.2063;1.7029;
435.0000;1.2072;1.7152;
435.3000;1.2055;1.7102;
435.6000;1.2063;1.7053;
435.9000;1.2055;1.7004;
436.2000;1.2055;1.7102;
436.5000;1.2072;1.7152;
436.8000;1.2055;1.7176;
437.1000;1.2039;1.7102;
437.4000;1.2055;1.7176;
437.7000;1.2039;1.7176;
438.0000;1.2063;1.7201;
438.3000;1.2080;1.7201;
438.6000;1.2055;1.7078;
438.9000;1.2104;1.7226;
439.2000;1.2055;1.7127;
439.5000;1.2047;1.7127;
439.8000;1.2063;1.7078;
440.1000;1.2072;1.7102;
440.4000;1.2063;1.7176;
440.7000;1.2039;1.7029;
441.0000;1.2047;1.7029;
441.3000;1.2047;1.6930;
441.6000;1.2063;1.6979;
441.9000;1.2055;1.7004;
442.2000;1.2039;1.7004;
442.5000;1.2055;1.7102;
442.8000;1.2047;1.7176;
443.1000;1.2055;1.7176;
443.4000;1.1958;1.6955;
443.7000;1.2063;1.7152;
444.0000;1.2072;1.7176;
444.3000;1.2063;1.7102;
444.6000;1.2072;1.7102;
444.9000;1.2031;1.6979;
445.2000;1.2039;1.7029;
445.5000;1.2039;1.7102;
445.8000;1.2063;1.7176;
446.1000;1.2063;1.7127;
446.4000;1.2047;1.7053;
446.7000;1.2031;1.6979;
447.0000;1.2063;1.6979;
447.3000;1.2039;1.6881;
447.6000;1.2063;1.6955;
447.9000;1.2063;1.7053;
448.2000;1.2055;1.7053;
448.5000;1.2072;1.7078;
448.8000;1.2080;1.7078;
449.1000;1.2063;1.7029;
449.4000;1.2104;1.7102;
449.7000;1.2023;1.6955;
450.0000;1.2047;1.7127;
450.3000;1.2047;1.7176;
450.6000;1.2072;1.7275;
450.9000;1.2055;1.7226;
451.2000;1.2055;1.7201;
451.5000;1.2063;1.7201;
451.8000;1.2063;1.7299;
452.1000;1.2080;1.7250;
452.4000;1.2063;1.7201;
452.7000;1.2080;1.7176;
453.0000;1.2080;1.7176;
453.3000;1.2055;1.7152;
453.6000;1.2055;1.7102;
453.9000;1.2063;1.7127;
454.2000;1.2055;1.7127;
454.5000;1.2072;1.7176;
454.8000;1.2072;1.7176;
455.1000;1.2047;1.7102;
455.4000;1.2072;1.7226;
455.7000;1.2063;1.7299;
456.0000;1.2055;1.7250;
456.3000;1.2072;1.7299;
456.6000;1.2063;1.7299;
456.9000;1.2063;1.7349;
457.2000;1.2063;1.7349;
457.5000;1.2055;1.7324;
457.8000;1.2055;1.7299;
458.1000;1.2063;1.7349;
458.4000;1.2055;1.7250;
458.7000;1.2063;1.7299;
459.0000;1.2047;1.7201;
459.3000;1.2055;1.7201;
459.6000;1.2063;1.7176;
459.9000;1.2055;1.7152;
460.2000;1.2055;1.7176;
460.5000;1.2055;1.7152;
460.8000;1.2047;1.7152;
461.1000;1.2080;1.7176;
461.4000;1.2055;1.7226;
461.7000;1.2031;1.7176;
462.0000;1.2063;1.7250;
462.3000;1.2080;1.7299;
462.6000;1.2031;1.7176;
462.9000;1.2047;1.7299;
463.2000;1.2031;1.7299;
463.5000;1.2080;1.7373;
463.8000;1.2063;1.7275;
464.1000;1.2055;1.7299;
464.4000;1.2080;1.7324;
464.7000;1.2063;1.7275;
465.0000;1.2063;1.7201;
465.3000;1.2055;1.7152;
465.6000;1.2112;1.7250;
465.9000;1.2072;1.7102;
466.2000;1.2055;1.6955;
466.5000;1.2047;1.6979;
466.8000;1.2072;1.7127;
467.1000;1.2047;1.7078;
467.4000;1.2063;1.7152;
467.7000;1.2031;1.7176;
468.0000;1.2063;1.7201;
468.3000;1.2047;1.7176;
468.6000;1.2047;1.7078;
468.9000;1.2063;1.7102;
469.2000;1.2055;1.7201;
469.5000;1.2080;1.7226;
469.8000;1.2055;1.7250;
470.1000;1.2055;1.7226;
470.4000;1.2023;1.7102;
470.7000;1.2063;1.7226;
471.0000;1.2047;1.7201;
471.3000;1.2063;1.7201;
471.6000;1.2055;1.7078;
471.9000;1.2055;1.7053;
472.2000;1.2063;1.7078;
472.5000;1.2063;1.7053;
472.8000;1.2047;1.7029;
473.1000;1.2055;1.7029;
473.4000;1.2072;1.7127;
473.7000;1.2080;1.7078;
474.0000;1.2039;1.7029;
474.3000;1.2072;1.7053;
474.6000;1.2055;1.7004;
474.9000;1.2063;1.7053;
475.2000;1.2063;1.7102;
475.5000;1.2039;1.7004;
475.8000;1.2039;1.7004;
476.1000;1.2063;1.7102;
476.4000;1.2039;1.7102;
476.7000;1.2047;1.7176;
477.0000;1.2047;1.7102;
477.3000;1.2039;1.7127;
477.6000;1.2063;1.7127;
477.9000;1.2055;1.7201;
478.2000;1.2039;1.7127;
478.5000;1.2063;1.7275;
478.8000;1.2055;1.7398;
479.1000;1.2055;1.7349;
479.4000;1.2055;1.7275;
479.7000;1.2063;1.7250;
480.0000;1.2063;1.7324;
480.3000;1.2063;1.7324;
480.6000;1.2096;1.7299;
480.9000;1.2047;1.7250;
481.2000;1.2047;1.7250;
481.5000;1.2104;1.7299;
481.8000;1.2063;1.7176;
482.1000;1.2055;1.7226;
482.4000;1.2047;1.7127;
482.7000;1.2047;1.7127;
483.0000;1.2023;1.7053;
483.3000;1.2055;1.7127;
483.6000;1.2047;1.7127;
483.9000;1.2055;1.7078;
484.2000;1.2055;1.7127;
484.5000;1.2063;1.7226;
484.8000;1.2023;1.7152;
485.1000;1.2072;1.7226;
485.4000;1.2055;1.7176;
485.7000;1.2039;1.7152;
486.0000;1.2023;1.7053;
486.3000;1.2080;1.7176;
486.6000;1.2015;1.7078;
486.9000;1.2031;1.7102;
487.2000;1.2047;1.7152;
487.5000;1.2072;1.7250;
487.8000;1.2031;1.7127;
488.1000;1.2023;1.7102;
488.4000;1.2072;1.7176;
488.7000;1.2055;1.7102;
489.0000;1.2063;1.7078;
489.3000;1.2047;1.7053;
489.6000;1.2039;1.7029;
489.9000;1.2047;1.7102;
490.2000;1.2063;1.7127;
490.5000;1.2031;1.7078;
490.8000;1.2055;1.7004;
491.1000;1.2039;1.6979;
491.4000;1.2072;1.7078;
491.7000;1.2055;1.7078;
492.0000;1.2055;1.7078;
492.3000;1.2047;1.7029;
492.6000;1.2072;1.7102;
492.9000;1.2039;1.7053;
493.2000;1.1998;1.6955;
493.5000;1.2080;1.7176;
493.8000;1.2063;1.7226;
494.1000;1.2047;1.7176;
494.4000;1.2047;1.7152;
494.7000;1.2031;1.7127;
495.0000;1.2023;1.7053;
495.3000;1.2080;1.7176;
495.6000;1.2055;1.7152;
495.9000;1.2007;1.7004;
496.2000;1.2039;1.7127;
496.5000;1.2055;1.7127;
496.8000;1.2047;1.7029;
497.1000;1.2047;1.7078;
497.4000;1.1941;1.6856;
497.7000;1.2023;1.7053;
498.0000;1.2055;1.7053;
498.3000;1.2047;1.6979;
498.6000;1.2039;1.6930;
498.9000;1.2031;1.6856;
499.2000;1.2063;1.6979;
499.5000;1.2047;1.6955;
499.8000;1.2031;1.6979;
500.1000;1.1958;1.6733;
500.4000;1.2047;1.7004;
500.7000;1.2063;1.7078;
501.0000;1.2039;1.6955;
501.3000;1.2031;1.7004;
501.6000;1.2039;1.6930;
501.9000;1.2047;1.7004;
502.2000;1.2031;1.7078;
502.5000;1.2039;1.7078;
502.8000;1.2039;1.7029;
503.1000;1.2047;1.7029;
503.4000;1.2047;1.7102;
503.7000;1.2039;1.7176;
504.0000;1.2063;1.7127;
504.3000;1.2047;1.7102;
504.6000;1.2063;1.7127;
504.9000;1.2047;1.7127;
505.2000;1.2047;1.7201;
505.5000;1.2047;1.7226;
505.8000;1.2063;1.7226;
506.1000;1.2063;1.7152;
506.4000;1.2023;1.7152;
506.7000;1.2031;1.7201;
507.0000;1.2047;1.7201;
507.3000;1.2031;1.7102;
507.6000;1.2039;1.7078;
507.9000;1.2023;1.6955;
508.2000;1.2031;1.7152;
508.5000;1.2047;1.7250;
508.8000;1.2047;1.7201;
509.1000;1.2015;1.7004;
509.4000;1.2007;1.6906;
509.7000;1.2039;1.7004;
510.0000;1.2015;1.7004;
510.3000;1.2023;1.7053;
510.6000;1.2039;1.7201;
510.9000;1.2039;1.7201;
511.2000;1.2047;1.7250;
511.5000;1.2015;1.7102;
511.8000;1.2039;1.7029;
512.1000;1.2031;1.6979;
512.4000;1.2047;1.7102;
512.7000;1.2031;1.7029;
513.0000;1.2039;1.6930;
513.3000;1.2047;1.6955;
513.6000;1.2072;1.7053;
513.9000;1.2039;1.7029;
514.2000;1.2031;1.6906;
514.5000;1.2055;1.7053;
514.8000;1.2047;1.7176;
515.1000;1.2055;1.7201;
515.4000;1.2072;1.7324;
515.7000;1.2072;1.7373;
516.0000;1.2063;1.7324;
516.3000;1.2039;1.7250;
516.6000;1.1958;1.6955;
516.9000;1.1958;1.7029;
517.2000;1.1982;1.7176;
517.5000;1.2015;1.7152;
517.8000;1.1966;1.7004;
518.1000;1.2023;1.7152;
518.4000;1.2047;1.7349;
518.7000;1.2023;1.7250;
519.0000;1.2080;1.7324;
519.3000;1.2088;1.7299;
519.6000;1.2039;1.7275;
519.9000;1.1958;1.6979;
520.2000;1.2063;1.7275;
520.5000;1.2007;1.7152;
520.8000;1.2055;1.7250;
521.1000;1.2047;1.7275;
521.4000;1.2063;1.7250;
521.7000;1.1998;1.7152;
522.0000;1.2031;1.7226;
522.3000;1.2023;1.7078;
522.6000;1.2112;1.7299;
522.9000;1.2015;1.7078;
523.2000;1.2047;1.7102;
523.5000;1.2023;1.7102;
523.8000;1.2055;1.7152;
524.1000;1.2047;1.7152;
524.4000;1.2063;1.7275;
524.7000;1.1982;1.7127;
525.0000;1.2031;1.7275;
525.3000;1.2031;1.7226;
525.6000;1.2055;1.7299;
525.9000;1.2055;1.7275;
526.2000;1.2072;1.7324;
526.5000;1.2055;1.7250;
526.8000;1.1941;1.6930;
527.1000;1.2039;1.7152;
527.4000;1.2047;1.7102;
527.7000;1.2047;1.7053;
528.0000;1.2031;1.7078;
528.3000;1.2039;1.6979;
528.6000;1.2023;1.6906;
528.9000;1.2047;1.6906;
529.2000;1.2039;1.6881;
529.5000;1.2039;1.6930;
529.8000;1.2047;1.7004;
530.1000;1.2031;1.6979;
530.4000;1.2039;1.7078;
530.7000;1.2047;1.7152;
531.0000;1.2031;1.7176;
531.3000;1.2023;1.7127;
531.6000;1.2063;1.7275;
531.9000;1.2039;1.7226;
532.2000;1.2031;1.7250;
532.5000;1.2031;1.7250;
532.8000;1.2007;1.7176;
533.1000;1.2047;1.7275;
533.4000;1.2031;1.7152;
533.7000;1.2031;1.7176;
534.0000;1.2031;1.7226;
534.3000;1.2023;1.7226;
534.6000;1.2023;1.7226;
534.9000;1.2031;1.7226;
535.2000;1.2039;1.7250;
535.5000;1.2055;1.7299;
535.8000;1.2031;1.7201;
536.1000;1.2015;1.7201;
536.4000;1.2031;1.7299;
536.7000;1.2023;1.7299;
537.0000;1.2055;1.7472;
537.3000;1.1990;1.7324;
537.6000;1.2063;1.7472;
537.9000;1.1966;1.7250;
538.2000;1.2023;1.7373;
538.5000;1.2063;1.7398;
538.8000;1.2063;1.7324;
539.1000;1.2039;1.7324;
539.4000;1.2047;1.7299;
539.7000;1.1998;1.7226;
540.0000;1.2031;1.7299;
540.3000;1.2047;1.7299;
540.6000;1.2023;1.7226;
540.9000;1.1982;1.7176;
541.2000;1.2015;1.7226;
541.5000;1.2031;1.7226;
541.8000;1.2015;1.7152;
542.1000;1.2031;1.7152;
542.4000;1.2047;1.7078;
542.7000;1.2039;1.7029;
543.0000;1.2039;1.7029;
543.3000;1.2047;1.7004;
543.6000;1.1998;1.6881;
543.9000;1.2023;1.7029;
544.2000;1.2031;1.7102;
544.5000;1.2031;1.7152;
544.8000;1.2031;1.7078;
545.1000;1.2023;1.7053;
545.4000;1.2031;1.6955;
545.7000;1.2080;1.7201;
546.0000;1.2023;1.7102;
546.3000;1.2007;1.7029;
546.6000;1.2015;1.7176;
546.9000;1.2039;1.7275;
547.2000;1.2031;1.7250;
547.5000;1.2023;1.7226;
547.8000;1.2023;1.7226;
548.1000;1.2055;1.7250;
548.4000;1.2039;1.7250;
548.7000;1.2039;1.7201;
549.0000;1.2047;1.7226;
549.3000;1.2031;1.7250;
549.6000;1.2031;1.7226;
549.9000;1.2039;1.7127;
550.2000;1.2023;1.7078;
550.5000;1.2039;1.7078;
550.8000;1.2007;1.6930;
551.1000;1.2031;1.7029;
551.4000;1.2039;1.7029;
551.7000;1.2039;1.7004;
552.0000;1.2031;1.7004;
552.3000;1.2039;1.7053;
552.6000;1.2039;1.7078;
552.9000;1.2031;1.7152;
553.2000;1.2031;1.7201;
553.5000;1.2031;1.7152;
553.8000;1.2015;1.7102;
554.1000;1.1998;1.7053;
554.4000;1.2031;1.7176;
554.7000;1.2015;1.7152;
555.0000;1.2007;1.7053;
555.3000;1.2007;1.7102;
555.6000;1.1950;1.6979;
555.9000;1.2023;1.7250;
556.2000;1.1958;1.7078;
556.5000;1.2015;1.7102;
556.8000;1.2015;1.7029;
557.1000;1.2023;1.7152;
557.4000;1.2039;1.7201;
557.7000;1.2015;1.7053;
558.0000;1.2023;1.7029;
558.3000;1.2039;1.7102;
558.6000;1.2055;1.7127;
558.9000;1.2047;1.7152;
559.2000;1.2015;1.7127;
559.5000;1.2023;1.7152;
559.8000;1.2047;1.7201;
560.1000;1.2031;1.7201;
560.4000;1.1974;1.7102;
560.7000;1.2031;1.7176;
561.0000;1.2031;1.7102;
561.3000;1.2015;1.7102;
561.6000;1.2039;1.7127;
561.9000;1.2031;1.7176;
562.2000;1.2047;1.7275;
562.5000;1.1966;1.7152;
562.8000;1.1982;1.7152;
563.1000;1.2047;1.7201;
563.4000;1.2039;1.7226;
563.7000;1.2031;1.7275;
564.0000;1.2039;1.7250;
564.3000;1.2007;1.7250;
564.6000;1.2088;1.7398;
564.9000;1.2039;1.7275;
565.2000;1.2023;1.7226;
565.5000;1.2015;1.7250;
565.8000;1.2023;1.7226;
566.1000;1.2039;1.7176;
566.4000;1.2015;1.7176;
566.7000;1.2023;1.7250;
567.0000;1.2031;1.7226;
567.3000;1.2047;1.7299;
567.6000;1.2031;1.7176;
567.9000;1.2023;1.7201;
568.2000;1.2039;1.7201;
568.5000;1.2031;1.7275;
568.8000;1.2031;1.7349;
569.1000;1.2023;1.7472;
569.4000;1.2031;1.7496;
569.7000;1.2023;1.7422;
570.0000;1.1966;1.7373;
570.3000;1.2015;1.7472;
570.6000;1.1998;1.7472;
570.9000;1.1966;1.7447;
571.2000;1.2015;1.7570;
571.5000;1.1982;1.7373;
571.8000;1.2023;1.7472;
572.1000;1.2031;1.7447;
572.4000;1.2039;1.7373;
572.7000;1.2047;1.7349;
573.0000;1.2023;1.7250;
573.3000;1.2015;1.7275;
573.6000;1.2023;1.7398;
573.9000;1.2039;1.7447;
574.2000;1.2023;1.7349;
574.5000;1.2031;1.7373;
574.8000;1.2039;1.7324;
575.1000;1.2023;1.7324;
575.4000;1.2039;1.7299;
575.7000;1.2015;1.7398;
576.0000;1.2112;1.7742;
576.3000;1.2015;1.7472;
576.6000;1.2031;1.7472;
576.9000;1.1998;1.7422;
577.2000;1.2023;1.7447;
577.5000;1.2023;1.7422;
577.8000;1.2015;1.7472;
578.1000;1.2055;1.7447;
578.4000;1.2007;1.7398;
578.7000;1.1950;1.7226;
579.0000;1.2031;1.7373;
579.3000;1.1990;1.7324;
579.6000;1.1982;1.7299;
579.9000;1.2015;1.7349;
580.2000;1.1917;1.7152;
580.5000;1.1998;1.7299;
580.8000;1.2015;1.7275;
581.1000;1.1998;1.7201;
581.4000;1.2031;1.7078;
581.7000;1.2023;1.7029;
582.0000;1.1990;1.6881;
582.3000;1.2047;1.7053;
582.6000;1.2007;1.7029;
582.9000;1.1990;1.7029;
583.2000;1.1998;1.7226;
583.5000;1.2023;1.7299;
583.8000;1.2031;1.7349;
584.1000;1.2063;1.7398;
584.4000;1.1941;1.7078;
584.7000;1.2015;1.7250;
585.0000;1.2007;1.7299;
585.3000;1.2023;1.7349;
585.6000;1.2023;1.7299;
585.9000;1.2039;1.7299;
586.2000;1.2031;1.7373;
586.5000;1.1998;1.7324;
586.8000;1.2015;1.7373;
587.1000;1.2015;1.7422;
587.4000;1.1941;1.7299;
587.7000;1.2031;1.7398;
588.0000;1.2023;1.7349;
588.3000;1.2023;1.7324;
588.6000;1.2088;1.7447;
588.9000;1.2023;1.7349;
589.2000;1.2007;1.7349;
589.5000;1.2023;1.7324;
589.8000;1.2007;1.7349;
590.1000;1.2007;1.7349;
590.4000;1.2015;1.7373;
590.7000;1.2015;1.7324;
591.0000;1.2031;1.7299;
591.3000;1.1998;1.7201;
591.6000;1.2031;1.7201;
591.9000;1.2015;1.7201;
592.2000;1.1998;1.7201;
592.5000;1.1982;1.7226;
592.8000;1.2007;1.7299;
593.1000;1.2007;1.7299;
593.4000;1.2007;1.7349;
593.7000;1.2015;1.7398;
594.0000;1.2007;1.7422;
594.3000;1.2023;1.7472;
594.6000;1.2015;1.7398;
594.9000;1.1990;1.7349;
595.2000;1.1990;1.7422;
595.5000;1.2015;1.7496;
595.8000;1.2023;1.7521;
596.1000;1.1998;1.7496;
596.4000;1.1990;1.7472;
596.7000;1.1998;1.7422;
597.0000;1.1998;1.7422;
597.3000;1.2007;1.7299;
597.6000;1.2007;1.7324;
597.9000;1.2007;1.7250;
598.2000;1.2023;1.7299;
598.5000;1.2039;1.7299;
598.8000;1.2023;1.7373;
599.1000;1.1998;1.7275;
599.4000;1.2015;1.7398;
599.7000;1.2007;1.7349;
600.0000;1.1982;1.7226;
600.3000;1.1990;1.7029;
600.6000;1.2031;1.6979;
600.9000;1.2047;1.6856;
601.2000;1.1933;1.6561;
601.5000;1.1860;1.6389;
601.8000;1.1770;1.6217;
602.1000;1.1681;1.6044;
602.4000;1.1575;1.5971;
602.7000;1.1469;1.5774;
603.0000;1.1412;1.5626;
603.3000;1.1331;1.5478;
603.6000;1.1233;1.5281;
603.9000;1.1160;1.5134;
604.2000;1.1062;1.4962;
604.5000;1.1022;1.4888;
604.8000;1.0916;1.4642;
605.1000;1.0810;1.4396;
605.4000;1.0745;1.4445;
605.7000;1.0737;1.4519;
606.0000;1.0688;1.4469;
606.3000;1.0615;1.4297;
606.6000;1.0558;1.4273;
606.9000;1.0517;1.4199;
607.2000;1.0460;1.4223;
607.5000;1.0379;1.4199;
607.8000;1.0322;1.4174;
608.1000;1.0273;1.4125;
608.4000;1.0248;1.4150;
608.7000;1.0183;1.4026;
609.0000;1.0142;1.3953;
609.3000;1.0077;1.3805;
609.6000;1.0053;1.3805;
609.9000;0.9988;1.3657;
610.2000;0.9947;1.3657;
610.5000;0.9923;1.3682;
610.8000;0.9858;1.3534;
611.1000;0.9809;1.3510;
611.4000;0.9744;1.3510;
611.7000;0.9727;1.3534;
612.0000;0.9703;1.3559;
612.3000;0.9678;1.3584;
612.6000;0.9589;1.3485;
612.9000;0.9556;1.3436;
613.2000;0.9516;1.3461;
613.5000;0.9483;1.3534;
613.8000;0.9402;1.3436;
614.1000;0.9353;1.3337;
614.4000;0.9312;1.3165;
614.7000;0.9320;1.3165;
615.0000;0.9223;1.2919;
615.3000;0.9247;1.2993;
615.6000;0.9198;1.2944;
615.9000;0.9182;1.2944;
616.2000;0.9149;1.3018;
616.5000;0.9141;1.3091;
616.8000;0.9092;1.2968;
617.1000;0.9027;1.2944;
617.4000;0.9068;1.3067;
617.7000;0.8995;1.3018;
618.0000;0.8970;1.3067;
618.3000;0.8954;1.3091;
618.6000;0.8913;1.3042;
618.9000;0.8930;1.3239;
619.2000;0.8840;1.3091;
619.5000;0.8816;1.3091;
619.8000;0.8807;1.3042;
620.1000;0.8783;1.2993;
620.4000;0.8751;1.2944;
620.7000;0.8718;1.2796;
621.0000;0.8669;1.2722;
621.3000;0.8702;1.2722;
621.6000;0.8612;1.2648;
621.9000;0.8628;1.2747;
622.2000;0.8588;1.2648;
622.5000;0.8588;1.2599;
622.8000;0.8571;1.2599;
623.1000;0.8531;1.2525;
623.4000;0.8523;1.2575;
623.7000;0.8498;1.2550;
624.0000;0.8506;1.2648;
624.3000;0.8457;1.2525;
624.6000;0.8433;1.2575;
624.9000;0.8409;1.2550;
625.2000;0.8384;1.2476;
625.5000;0.8327;1.2402;
625.8000;0.8344;1.2599;
626.1000;0.8319;1.2599;
626.4000;0.8303;1.2648;
626.7000;0.8270;1.2698;
627.0000;0.8238;1.2648;
627.3000;0.8254;1.2796;
627.6000;0.8230;1.2796;
627.9000;0.8213;1.2944;
628.2000;0.8181;1.2968;
628.5000;0.8164;1.2845;
628.8000;0.8148;1.2821;
629.1000;0.8116;1.2821;
629.4000;0.8213;1.3018;
629.7000;0.8075;1.2599;
630.0000;0.8075;1.2599;
630.3000;0.8083;1.2698;
630.6000;0.8042;1.2648;
630.9000;0.8034;1.2599;
631.2000;0.8034;1.2599;
631.5000;0.7912;1.2304;
631.8000;0.8026;1.2624;
632.1000;0.7977;1.2624;
632.4000;0.7937;1.2648;
632.7000;0.7937;1.2673;
633.0000;0.7928;1.2698;
633.3000;0.7937;1.2698;
633.6000;0.7896;1.2525;
633.9000;0.7912;1.2648;
634.2000;0.7888;1.2673;
634.5000;0.7790;1.2476;
634.8000;0.7757;1.2501;
635.1000;0.7823;1.2747;
635.4000;0.7806;1.2845;
635.7000;0.7757;1.2673;
636.0000;0.7733;1.2575;
636.3000;0.7741;1.2624;
636.6000;0.7766;1.2771;
636.9000;0.7749;1.2722;
637.2000;0.7717;1.2698;
637.5000;0.7709;1.2698;
637.8000;0.7692;1.2648;
638.1000;0.7717;1.2747;
638.4000;0.7692;1.2648;
638.7000;0.7684;1.2525;
639.0000;0.7660;1.2501;
639.3000;0.7627;1.2550;
639.6000;0.7635;1.2550;
639.9000;0.7635;1.2501;
640.2000;0.7611;1.2550;
640.5000;0.7611;1.2550;
640.8000;0.7586;1.2501;
641.1000;0.7595;1.2599;
641.4000;0.7562;1.2476;
641.7000;0.7578;1.2501;
642.0000;0.7554;1.2427;
642.3000;0.7570;1.2402;
642.6000;0.7554;1.2452;
642.9000;0.7513;1.2353;
643.2000;0.7530;1.2452;
643.5000;0.7505;1.2378;
643.8000;0.7497;1.2378;
644.1000;0.7481;1.2427;
644.4000;0.7505;1.2575;
644.7000;0.7448;1.2402;
645.0000;0.7489;1.2525;
645.3000;0.7440;1.2501;
645.6000;0.7448;1.2550;
645.9000;0.7440;1.2575;
646.2000;0.7424;1.2575;
646.5000;0.7416;1.2501;
646.8000;0.7399;1.2501;
647.1000;0.7424;1.2599;
647.4000;0.7391;1.2525;
647.7000;0.7399;1.2550;
648.0000;0.7391;1.2501;
648.3000;0.7407;1.2624;
648.6000;0.7359;1.2427;
648.9000;0.7367;1.2550;
649.2000;0.7350;1.2525;
649.5000;0.7342;1.2525;
649.8000;0.7334;1.2452;
650.1000;0.7293;1.2378;
650.4000;0.7285;1.2402;
650.7000;0.7318;1.2476;
651.0000;0.7334;1.2575;
651.3000;0.7302;1.2599;
651.6000;0.7277;1.2501;
651.9000;0.7253;1.2476;
652.2000;0.7269;1.2550;
652.5000;0.7310;1.2722;
652.8000;0.7269;1.2648;
653.1000;0.7228;1.2648;
653.4000;0.7236;1.2722;
653.7000;0.7261;1.2821;
654.0000;0.7228;1.2747;
654.3000;0.7228;1.2648;
654.6000;0.7228;1.2624;
654.9000;0.7204;1.2525;
655.2000;0.7179;1.2525;
655.5000;0.7188;1.2525;
655.8000;0.7228;1.2648;
656.1000;0.7179;1.2476;
656.4000;0.7188;1.2525;
656.7000;0.7188;1.2501;
657.0000;0.7179;1.2329;
657.3000;0.7171;1.2304;
657.6000;0.7163;1.2329;
657.9000;0.7139;1.2329;
658.2000;0.7155;1.2329;
658.5000;0.7139;1.2304;
658.8000;0.7131;1.2279;
659.1000;0.7123;1.2279;
659.4000;0.7114;1.2206;
659.7000;0.7098;1.2132;
660.0000;0.7114;1.2132;
660.3000;0.7098;1.2181;
660.6000;0.7106;1.2255;
660.9000;0.7098;1.2353;
661.2000;0.7098;1.2427;
661.5000;0.7098;1.2452;
661.8000;0.7066;1.2353;
662.1000;0.7074;1.2255;
662.4000;0.7066;1.2255;
662.7000;0.7049;1.2206;
663.0000;0.7049;1.2156;
663.3000;0.7033;1.2230;
663.6000;0.7066;1.2255;
663.9000;0.7049;1.2255;
664.2000;0.7049;1.2304;
664.5000;0.7033;1.2329;
664.8000;0.7025;1.2427;
665.1000;0.7033;1.2378;
665.4000;0.7017;1.2452;
665.7000;0.7017;1.2452;
666.0000;0.7041;1.2550;
666.3000;0.7017;1.2501;
666.6000;0.7009;1.2476;
666.9000;0.6992;1.2402;
667.2000;0.7000;1.2525;
667.5000;0.6984;1.2501;
667.8000;0.7009;1.2575;
668.1000;0.6992;1.2525;
668.4000;0.6968;1.2427;
668.7000;0.6960;1.2402;
669.0000;0.6984;1.2378;
669.3000;0.6960;1.2304;
669.6000;0.6976;1.2329;
669.9000;0.6943;1.2255;
670.2000;0.6935;1.2230;
670.5000;0.6943;1.2181;
670.8000;0.6968;1.2255;
671.1000;0.6903;1.2132;
671.4000;0.6927;1.2230;
671.7000;0.6935;1.2329;
672.0000;0.6919;1.2329;
672.3000;0.6952;1.2402;
672.6000;0.6846;1.2132;
672.9000;0.6919;1.2279;
673.2000;0.6886;1.2230;
673.5000;0.6935;1.2206;
673.8000;0.6911;1.2132;
674.1000;0.6895;1.2132;
674.4000;0.6903;1.2206;
674.7000;0.6838;1.2107;
675.0000;0.6829;1.2082;
675.3000;0.6821;1.2082;
675.6000;0.6870;1.2255;
675.9000;0.6862;1.2279;
676.2000;0.6870;1.2353;
676.5000;0.6829;1.2255;
676.8000;0.6870;1.2402;
677.1000;0.6862;1.2329;
677.4000;0.6846;1.2255;
677.7000;0.6829;1.2279;
678.0000;0.6838;1.2279;
678.3000;0.6829;1.2230;
678.6000;0.6846;1.2279;
678.9000;0.6829;1.2279;
679.2000;0.6854;1.2304;
679.5000;0.6838;1.2279;
679.8000;0.6838;1.2329;
680.1000;0.6821;1.2329;
680.4000;0.6838;1.2402;
680.7000;0.6829;1.2378;
681.0000;0.6813;1.2353;
681.3000;0.6805;1.2427;
681.6000;0.6846;1.2599;
681.9000;0.6805;1.2452;
682.2000;0.6797;1.2378;
682.5000;0.6789;1.2353;
682.8000;0.6797;1.2427;
683.1000;0.6821;1.2575;
683.4000;0.6781;1.2525;
683.7000;0.6781;1.2476;
684.0000;0.6797;1.2402;
684.3000;0.6772;1.2329;
684.6000;0.6829;1.2550;
684.9000;0.6781;1.2501;
685.2000;0.6772;1.2427;
685.5000;0.6821;1.2698;
685.8000;0.6789;1.2648;
686.1000;0.6772;1.2575;
686.4000;0.6772;1.2599;
686.7000;0.6764;1.2599;
687.0000;0.6756;1.2501;
687.3000;0.6756;1.2476;
687.6000;0.6781;1.2550;
687.9000;0.6772;1.2427;
688.2000;0.6764;1.2378;
688.5000;0.6764;1.2279;
688.8000;0.6732;1.2107;
689.1000;0.6740;1.2132;
689.4000;0.6748;1.2132;
689.7000;0.6732;1.2206;
690.0000;0.6724;1.2132;
690.3000;0.6748;1.2181;
690.6000;0.6732;1.2181;
690.9000;0.6732;1.2279;
691.2000;0.6732;1.2329;
691.5000;0.6748;1.2329;
691.8000;0.6748;1.2378;
692.1000;0.6756;1.2476;
692.4000;0.6724;1.2353;
692.7000;0.6707;1.2378;
693.0000;0.6724;1.2476;
693.3000;0.6724;1.2452;
693.6000;0.6716;1.2378;
693.9000;0.6699;1.2378;
694.2000;0.6691;1.2452;
694.5000;0.6724;1.2575;
694.8000;0.6716;1.2575;
695.1000;0.6675;1.2427;
695.4000;0.6683;1.2476;
695.7000;0.6699;1.2501;
696.0000;0.6716;1.2452;
696.3000;0.6683;1.2452;
696.6000;0.6699;1.2353;
696.9000;0.6707;1.2353;
697.2000;0.6675;1.2329;
697.5000;0.6699;1.2329;
697.8000;0.6683;1.2279;
698.1000;0.6716;1.2329;
698.4000;0.6683;1.2402;
698.7000;0.6659;1.2329;
699.0000;0.6667;1.2230;
699.3000;0.6667;1.2304;
699.6000;0.6675;1.2279;
699.9000;0.6667;1.2230;
700.2000;0.6577;1.2082;
700.5000;0.6642;1.2279;
700.8000;0.6650;1.2353;
701.1000;0.6626;1.2329;
701.4000;0.6650;1.2329;
701.7000;0.6642;1.2329;
702.0000;0.6634;1.2329;
702.3000;0.6659;1.2378;
702.6000;0.6642;1.2402;
702.9000;0.6659;1.2304;
703.2000;0.6642;1.2230;
703.5000;0.6667;1.2255;
703.8000;0.6650;1.2181;
704.1000;0.6618;1.2230;
704.4000;0.6650;1.2304;
704.7000;0.6634;1.2329;
705.0000;0.6642;1.2378;
705.3000;0.6659;1.2353;
705.6000;0.6626;1.2304;
705.9000;0.6634;1.2402;
706.2000;0.6634;1.2402;
706.5000;0.6634;1.2402;
706.8000;0.6618;1.2378;
707.1000;0.6626;1.2402;
707.4000;0.6634;1.2378;
707.7000;0.6577;1.2304;
708.0000;0.6610;1.2353;
708.3000;0.6585;1.2329;
708.6000;0.6618;1.2427;
708.9000;0.6602;1.2329;
709.2000;0.6593;1.2279;
709.5000;0.6577;1.2206;
709.8000;0.6536;1.2082;
710.1000;0.6593;1.2230;
710.4000;0.6585;1.2156;
710.7000;0.6642;1.2279;
711.0000;0.6602;1.2206;
711.3000;0.6610;1.2279;
711.6000;0.6593;1.2304;
711.9000;0.6593;1.2304;
712.2000;0.6585;1.2279;
712.5000;0.6536;1.2156;
712.8000;0.6618;1.2329;
713.1000;0.6593;1.2329;
713.4000;0.6585;1.2304;
713.7000;0.6602;1.2402;
714.0000;0.6585;1.2304;
714.3000;0.6577;1.2255;
714.6000;0.6585;1.2329;
714.9000;0.6577;1.2402;
715.2000;0.6520;1.2329;
715.5000;0.6585;1.2427;
715.8000;0.6561;1.2476;
716.1000;0.6577;1.2599;
716.4000;0.6577;1.2575;
716.7000;0.6569;1.2575;
717.0000;0.6553;1.2501;
717.3000;0.6585;1.2575;
717.6000;0.6577;1.2550;
717.9000;0.6561;1.2550;
718.2000;0.6569;1.2501;
718.5000;0.6561;1.2452;
718.8000;0.6553;1.2476;
719.1000;0.6569;1.2476;
719.4000;0.6536;1.2525;
719.7000;0.6569;1.2550;
720.0000;0.6569;1.2599;
720.3000;0.6569;1.2550;
720.6000;0.6553;1.2550;
720.9000;0.6536;1.2575;
721.2000;0.6569;1.2599;
721.5000;0.6569;1.2476;
721.8000;0.6545;1.2427;
722.1000;0.6528;1.2402;
722.4000;0.6545;1.2525;
722.7000;0.6553;1.2501;
723.0000;0.6569;1.2575;
723.3000;0.6553;1.2648;
723.6000;0.6553;1.2550;
723.9000;0.6520;1.2501;
724.2000;0.6545;1.2501;
724.5000;0.6536;1.2452;
724.8000;0.6536;1.2476;
725.1000;0.6536;1.2501;
725.4000;0.6528;1.2452;
725.7000;0.6553;1.2575;
726.0000;0.6536;1.2501;
726.3000;0.6545;1.2501;
726.6000;0.6528;1.2476;
726.9000;0.6528;1.2452;
727.2000;0.6545;1.2402;
727.5000;0.6545;1.2550;
727.8000;0.6536;1.2452;
728.1000;0.6455;1.2255;
728.4000;0.6504;1.2353;
728.7000;0.6520;1.2476;
729.0000;0.6439;1.2230;
729.3000;0.6520;1.2452;
729.6000;0.6545;1.2599;
729.9000;0.6488;1.2427;
730.2000;0.6528;1.2452;
730.5000;0.6504;1.2525;
730.8000;0.6512;1.2452;
731.1000;0.6528;1.2501;
731.4000;0.6528;1.2501;
731.7000;0.6504;1.2402;
732.0000;0.6512;1.2427;
732.3000;0.6496;1.2476;
732.6000;0.6520;1.2525;
732.9000;0.6504;1.2378;
733.2000;0.6447;1.2304;
733.5000;0.6488;1.2427;
733.8000;0.6496;1.2501;
734.1000;0.6496;1.2501;
734.4000;0.6504;1.2501;
734.7000;0.6504;1.2476;
735.0000;0.6496;1.2525;
735.3000;0.6512;1.2550;
735.6000;0.6504;1.2452;
735.9000;0.6496;1.2378;
736.2000;0.6504;1.2353;
736.5000;0.6496;1.2304;
736.8000;0.6512;1.2402;
737.1000;0.6504;1.2353;
737.4000;0.6504;1.2329;
737.7000;0.6504;1.2402;
738.0000;0.6504;1.2501;
738.3000;0.6504;1.2550;
738.6000;0.6496;1.2525;
738.9000;0.6479;1.2525;
739.2000;0.6504;1.2648;
739.5000;0.6488;1.2599;
739.8000;0.6463;1.2476;
740.1000;0.6545;1.2747;
740.4000;0.6504;1.2575;
740.7000;0.6479;1.2525;
741.0000;0.6479;1.2476;
741.3000;0.6463;1.2402;
741.6000;0.6504;1.2624;
741.9000;0.6455;1.2476;
742.2000;0.6471;1.2427;
742.5000;0.6496;1.2501;
742.8000;0.6488;1.2501;
743.1000;0.6479;1.2452;
743.4000;0.6488;1.2476;
743.7000;0.6520;1.2476;
744.0000;0.6479;1.2329;
744.3000;0.6496;1.2378;
744.6000;0.6406;1.2181;
744.9000;0.6463;1.2353;
745.2000;0.6479;1.2402;
745.5000;0.6479;1.2353;
745.8000;0.6431;1.2181;
746.1000;0.6463;1.2353;
746.4000;0.6488;1.2575;
746.7000;0.6463;1.2525;
747.0000;0.6463;1.2501;
747.3000;0.6439;1.2378;
747.6000;0.6496;1.2501;
747.9000;0.6463;1.2329;
748.2000;0.6471;1.2452;
748.5000;0.6479;1.2427;
748.8000;0.6463;1.2378;
749.1000;0.6479;1.2378;
749.4000;0.6463;1.2353;
749.7000;0.6471;1.2402;
750.0000;0.6479;1.2452;
750.3000;0.6488;1.2427;
750.6000;0.6398;1.2181;
750.9000;0.6463;1.2304;
751.2000;0.6463;1.2304;
751.5000;0.6463;1.2353;
751.8000;0.6463;1.2427;
752.1000;0.6471;1.2452;
752.4000;0.6431;1.2353;
752.7000;0.6439;1.2206;
753.0000;0.6447;1.2230;
753.3000;0.6455;1.2353;
753.6000;0.6463;1.2402;
753.9000;0.6463;1.2353;
754.2000;0.6447;1.2378;
754.5000;0.6455;1.2427;
754.8000;0.6512;1.2575;
755.1000;0.6455;1.2452;
755.4000;0.6422;1.2304;
755.7000;0.6455;1.2402;
756.0000;0.6471;1.2378;
756.3000;0.6422;1.2304;
756.6000;0.6422;1.2329;
756.9000;0.6439;1.2304;
757.2000;0.6447;1.2402;
757.5000;0.6439;1.2525;
757.8000;0.6414;1.2427;
758.1000;0.6439;1.2427;
758.4000;0.6398;1.2353;
758.7000;0.6422;1.2402;
759.0000;0.6439;1.2501;
759.3000;0.6463;1.2624;
759.6000;0.6431;1.2575;
759.9000;0.6439;1.2624;
760.2000;0.6382;1.2550;
760.5000;0.6447;1.2673;
760.8000;0.6431;1.2575;
761.1000;0.6431;1.2648;
761.4000;0.6439;1.2648;
761.7000;0.6422;1.2550;
762.0000;0.6431;1.2550;
762.3000;0.6488;1.2648;
762.6000;0.6455;1.2476;
762.9000;0.6406;1.2378;
763.2000;0.6431;1.2452;
763.5000;0.6447;1.2452;
763.8000;0.6422;1.2402;
764.1000;0.6455;1.2452;
764.4000;0.6439;1.2476;
764.7000;0.6422;1.2452;
765.0000;0.6398;1.2329;
765.3000;0.6439;1.2501;
765.6000;0.6406;1.2427;
765.9000;0.6414;1.2427;
766.2000;0.6414;1.2402;
766.5000;0.6422;1.2329;
766.8000;0.6357;1.2206;
767.1000;0.6455;1.2550;
767.4000;0.6398;1.2427;
767.7000;0.6374;1.2329;
768.0000;0.6414;1.2378;
768.3000;0.6406;1.2402;
768.6000;0.6406;1.2353;
768.9000;0.6414;1.2378;
769.2000;0.6422;1.2353;
769.5000;0.6414;1.2427;
769.8000;0.6422;1.2452;
770.1000;0.6406;1.2452;
770.4000;0.6471;1.2575;
770.7000;0.6406;1.2476;
771.0000;0.6414;1.2476;
771.3000;0.6398;1.2427;
771.6000;0.6398;1.2501;
771.9000;0.6414;1.2648;
772.2000;0.6414;1.2648;
772.5000;0.6455;1.2771;
772.8000;0.6414;1.2648;
773.1000;0.6406;1.2648;
773.4000;0.6365;1.2501;
773.7000;0.6398;1.2575;
774.0000;0.6390;1.2575;
774.3000;0.6414;1.2624;
774.6000;0.6390;1.2599;
774.9000;0.6398;1.2648;
775.2000;0.6406;1.2624;
775.5000;0.6390;1.2599;
775.8000;0.6422;1.2501;
776.1000;0.6422;1.2575;
776.4000;0.6398;1.2427;
776.7000;0.6422;1.2427;
777.0000;0.6414;1.2501;
777.3000;0.6414;1.2452;
777.6000;0.6406;1.2427;
777.9000;0.6439;1.2550;
778.2000;0.6414;1.2550;
778.5000;0.6414;1.2525;
778.8000;0.6414;1.2501;
779.1000;0.6406;1.2452;
779.4000;0.6431;1.2402;
779.7000;0.6374;1.2255;
780.0000;0.6406;1.2206;
780.3000;0.6398;1.2206;
780.6000;0.6414;1.2255;
780.9000;0.6390;1.2329;
781.2000;0.6406;1.2427;
781.5000;0.6414;1.2378;
781.8000;0.6398;1.2427;
782.1000;0.6422;1.2452;
782.4000;0.6414;1.2452;
782.7000;0.6414;1.2550;
783.0000;0.6398;1.2525;
783.3000;0.6382;1.2452;
783.6000;0.6390;1.2476;
783.9000;0.6398;1.2525;
784.2000;0.6471;1.2624;
784.5000;0.6390;1.2353;
784.8000;0.6365;1.2353;
785.1000;0.6390;1.2476;
785.4000;0.6431;1.2452;
785.7000;0.6414;1.2427;
786.0000;0.6398;1.2402;
786.3000;0.6431;1.2402;
786.6000;0.6406;1.2427;
786.9000;0.6365;1.2329;
787.2000;0.6422;1.2476;
787.5000;0.6374;1.2304;
787.8000;0.6374;1.2304;
788.1000;0.6398;1.2329;
788.4000;0.6414;1.2378;
788.7000;0.6398;1.2378;
789.0000;0.6422;1.2378;
789.3000;0.6382;1.2353;
789.6000;0.6398;1.2476;
789.9000;0.6390;1.2476;
790.2000;0.6414;1.2525;
790.5000;0.6414;1.2501;
790.8000;0.6349;1.2279;
791.1000;0.6333;1.2206;
791.4000;0.6374;1.2230;
791.7000;0.6365;1.2255;
792.0000;0.6439;1.2427;
792.3000;0.6398;1.2329;
792.6000;0.6390;1.2279;
792.9000;0.6398;1.2329;
793.2000;0.6382;1.2255;
793.5000;0.6406;1.2378;
793.8000;0.6382;1.2353;
794.1000;0.6382;1.2378;
794.4000;0.6398;1.2476;
794.7000;0.6406;1.2575;
795.0000;0.6406;1.2599;
795.3000;0.6406;1.2525;
795.6000;0.6390;1.2501;
795.9000;0.6390;1.2452;
796.2000;0.6390;1.2402;
796.5000;0.6374;1.2304;
796.8000;0.6382;1.2378;
797.1000;0.6382;1.2402;
797.4000;0.6398;1.2501;
797.7000;0.6365;1.2525;
798.0000;0.6382;1.2575;
798.3000;0.6398;1.2550;
798.6000;0.6414;1.2501;
798.9000;0.6365;1.2452;
799.2000;0.6382;1.2378;
799.5000;0.6406;1.2452;
799.8000;0.6398;1.2452;
800.1000;0.6398;1.2427;
800.4000;0.6414;1.2476;
800.7000;0.6382;1.2427;
801.0000;0.6390;1.2427;
801.3000;0.6390;1.2402;
801.6000;0.6390;1.2378;
801.9000;0.6365;1.2427;
802.2000;0.6374;1.2427;
802.5000;0.6390;1.2427;
802.8000;0.6374;1.2353;
803.1000;0.6382;1.2402;
803.4000;0.6390;1.2476;
803.7000;0.6406;1.2599;
804.0000;0.6382;1.2575;
804.3000;0.6374;1.2575;
804.6000;0.6382;1.2673;
804.9000;0.6382;1.2747;
805.2000;0.6439;1.2870;
805.5000;0.6365;1.2599;
805.8000;0.6374;1.2648;
806.1000;0.6398;1.2673;
806.4000;0.6390;1.2648;
806.7000;0.6309;1.2476;
807.0000;0.6422;1.2747;
807.3000;0.6390;1.2648;
807.6000;0.6439;1.2722;
807.9000;0.6365;1.2550;
808.2000;0.6357;1.2501;
808.5000;0.6382;1.2501;
808.8000;0.6374;1.2476;
809.1000;0.6357;1.2476;
809.4000;0.6398;1.2525;
809.7000;0.6374;1.2452;
810.0000;0.6382;1.2476;
810.3000;0.6374;1.2353;
810.6000;0.6390;1.2476;
810.9000;0.6390;1.2550;
811.2000;0.6390;1.2550;
811.5000;0.6390;1.2525;
811.8000;0.6390;1.2501;
812.1000;0.6390;1.2525;
812.4000;0.6398;1.2599;
812.7000;0.6406;1.2550;
813.0000;0.6382;1.2452;
813.3000;0.6349;1.2353;
813.6000;0.6382;1.2501;
813.9000;0.6390;1.2550;
814.2000;0.6374;1.2575;
814.5000;0.6357;1.2575;
814.8000;0.6374;1.2599;
815.1000;0.6463;1.2845;
815.4000;0.6382;1.2722;
815.7000;0.6365;1.2698;
816.0000;0.6374;1.2722;
816.3000;0.6390;1.2673;
816.6000;0.6349;1.2624;
816.9000;0.6374;1.2599;
817.2000;0.6349;1.2525;
817.5000;0.6374;1.2550;
817.8000;0.6365;1.2624;
818.1000;0.6374;1.2698;
818.4000;0.6390;1.2648;
818.7000;0.6357;1.2575;
819.0000;0.6382;1.2575;
819.3000;0.6365;1.2501;
819.6000;0.6357;1.2452;
819.9000;0.6398;1.2575;
820.2000;0.6365;1.2452;
820.5000;0.6365;1.2353;
820.8000;0.6365;1.2353;
821.1000;0.6382;1.2427;
821.4000;0.6382;1.2452;
821.7000;0.6382;1.2476;
822.0000;0.6374;1.2452;
822.3000;0.6374;1.2452;
822.6000;0.6398;1.2525;
822.9000;0.6365;1.2501;
823.2000;0.6365;1.2427;
823.5000;0.6341;1.2329;
823.8000;0.6390;1.2476;
824.1000;0.6374;1.2402;
824.4000;0.6382;1.2501;
824.7000;0.6382;1.2525;
825.0000;0.6325;1.2501;
825.3000;0.6365;1.2575;
825.6000;0.6374;1.2575;
825.9000;0.6284;1.2304;
826.2000;0.6333;1.2427;
826.5000;0.6349;1.2550;
826.8000;0.6365;1.2599;
827.1000;0.6349;1.2501;
827.4000;0.6349;1.2525;
827.7000;0.6382;1.2575;
828.0000;0.6341;1.2575;
828.3000;0.6349;1.2550;
828.6000;0.6357;1.2599;
828.9000;0.6365;1.2673;
829.2000;0.6390;1.2648;
829.5000;0.6374;1.2525;
829.8000;0.6357;1.2501;
830.1000;0.6357;1.2525;
830.4000;0.6455;1.2771;
830.7000;0.6365;1.2476;
831.0000;0.6300;1.2353;
831.3000;0.6357;1.2575;
831.6000;0.6365;1.2624;
831.9000;0.6276;1.2329;
832.2000;0.6357;1.2452;
832.5000;0.6357;1.2452;
832.8000;0.6422;1.2722;
833.1000;0.6365;1.2525;
833.4000;0.6374;1.2525;
833.7000;0.6349;1.2402;
834.0000;0.6365;1.2501;
834.3000;0.6365;1.2550;
834.6000;0.6357;1.2550;
834.9000;0.6349;1.2501;
835.2000;0.6357;1.2476;
835.5000;0.6357;1.2476;
835.8000;0.6365;1.2501;
836.1000;0.6333;1.2378;
836.4000;0.6325;1.2402;
836.7000;0.6357;1.2501;
837.0000;0.6317;1.2501;
837.3000;0.6357;1.2525;
837.6000;0.6349;1.2501;
837.9000;0.6398;1.2648;
838.2000;0.6390;1.2624;
838.5000;0.6365;1.2575;
838.8000;0.6349;1.2550;
839.1000;0.6349;1.2525;
839.4000;0.6390;1.2648;
839.7000;0.6357;1.2525;
840.0000;0.6406;1.2698;
840.3000;0.6284;1.2501;
840.6000;0.6349;1.2698;
840.9000;0.6341;1.2698;
841.2000;0.6341;1.2747;
841.5000;0.6349;1.2771;
841.8000;0.6390;1.2821;
842.1000;0.6349;1.2722;
842.4000;0.6406;1.2821;
842.7000;0.6341;1.2575;
843.0000;0.6357;1.2648;
843.3000;0.6349;1.2698;
843.6000;0.6357;1.2698;
843.9000;0.6349;1.2722;
844.2000;0.6349;1.2747;
844.5000;0.6341;1.2599;
844.8000;0.6349;1.2698;
845.1000;0.6357;1.2698;
845.4000;0.6390;1.2821;
845.7000;0.6390;1.2870;
846.0000;0.6357;1.2796;
846.3000;0.6374;1.2771;
846.6000;0.6341;1.2722;
846.9000;0.6349;1.2747;
847.2000;0.6341;1.2771;
847.5000;0.6357;1.2599;
847.8000;0.6349;1.2550;
848.1000;0.6382;1.2648;
848.4000;0.6357;1.2575;
848.7000;0.6317;1.2550;
849.0000;0.6357;1.2648;
849.3000;0.6325;1.2550;
849.6000;0.6333;1.2550;
849.9000;0.6414;1.2673;
850.2000;0.6349;1.2501;
850.5000;0.6374;1.2525;
850.8000;0.6341;1.2476;
851.1000;0.6341;1.2501;
851.4000;0.6341;1.2525;
851.7000;0.6333;1.2476;
852.0000;0.6333;1.2501;
852.3000;0.6365;1.2575;
852.6000;0.6349;1.2550;
852.9000;0.6325;1.2476;
853.2000;0.6349;1.2501;
853.5000;0.6325;1.2452;
853.8000;0.6333;1.2525;
854.1000;0.6349;1.2599;
854.4000;0.6341;1.2550;
854.7000;0.6341;1.2624;
855.0000;0.6349;1.2648;
855.3000;0.6341;1.2673;
855.6000;0.6341;1.2698;
855.9000;0.6333;1.2648;
856.2000;0.6349;1.2698;
856.5000;0.6349;1.2673;
856.8000;0.6357;1.2575;
857.1000;0.6341;1.2476;
857.4000;0.6349;1.2575;
857.7000;0.6357;1.2550;
858.0000;0.6349;1.2599;
858.3000;0.6317;1.2599;
858.6000;0.6349;1.2624;
858.9000;0.6341;1.2599;
859.2000;0.6349;1.2624;
859.5000;0.6365;1.2501;
859.8000;0.6357;1.2525;
860.1000;0.6349;1.2550;
860.4000;0.6357;1.2575;
860.7000;0.6406;1.2698;
861.0000;0.6365;1.2648;
861.3000;0.6349;1.2575;
861.6000;0.6365;1.2550;
861.9000;0.6349;1.2550;
862.2000;0.6341;1.2599;
862.5000;0.6292;1.2550;
862.8000;0.6357;1.2698;
863.1000;0.6341;1.2698;
863.4000;0.6349;1.2771;
863.7000;0.6349;1.2648;
864.0000;0.6365;1.2698;
864.3000;0.6341;1.2575;
864.6000;0.6365;1.2624;
864.9000;0.6333;1.2525;
865.2000;0.6349;1.2501;
865.5000;0.6333;1.2452;
865.8000;0.6365;1.2550;
866.1000;0.6349;1.2501;
866.4000;0.6365;1.2501;
866.7000;0.6349;1.2427;
867.0000;0.6333;1.2353;
867.3000;0.6341;1.2378;
867.6000;0.6349;1.2550;
867.9000;0.6349;1.2476;
868.2000;0.6341;1.2550;
868.5000;0.6309;1.2599;
868.8000;0.6325;1.2624;
869.1000;0.6333;1.2525;
869.4000;0.6341;1.2575;
869.7000;0.6341;1.2599;
870.0000;0.6276;1.2452;
870.3000;0.6341;1.2550;
870.6000;0.6390;1.2648;
870.9000;0.6333;1.2452;
871.2000;0.6349;1.2476;
871.5000;0.6341;1.2427;
871.8000;0.6325;1.2329;
872.1000;0.6341;1.2279;
872.4000;0.6333;1.2279;
872.7000;0.6349;1.2378;
873.0000;0.6300;1.2255;
873.3000;0.6333;1.2378;
873.6000;0.6317;1.2402;
873.9000;0.6341;1.2452;
874.2000;0.6382;1.2575;
874.5000;0.6276;1.2427;
874.8000;0.6341;1.2648;
875.1000;0.6333;1.2648;
875.4000;0.6365;1.2747;
875.7000;0.6374;1.2722;
876.0000;0.6317;1.2599;
876.3000;0.6300;1.2648;
876.6000;0.6309;1.2722;
876.9000;0.6276;1.2698;
877.2000;0.6317;1.2771;
877.5000;0.6333;1.2722;
877.8000;0.6349;1.2796;
878.1000;0.6276;1.2624;
878.4000;0.6382;1.2870;
878.7000;0.6333;1.2771;
879.0000;0.6333;1.2747;
879.3000;0.6325;1.2722;
879.6000;0.6341;1.2771;
879.9000;0.6357;1.2845;
880.2000;0.6341;1.2747;
880.5000;0.6317;1.2624;
880.8000;0.6365;1.2599;
881.1000;0.6341;1.2550;
881.4000;0.6365;1.2673;
881.7000;0.6357;1.2624;
882.0000;0.6317;1.2501;
882.3000;0.6268;1.2378;
882.6000;0.6325;1.2452;
882.9000;0.6333;1.2476;
883.2000;0.6341;1.2599;
883.5000;0.6325;1.2575;
883.8000;0.6268;1.2452;
884.1000;0.6414;1.2895;
884.4000;0.6317;1.2648;
884.7000;0.6284;1.2501;
885.0000;0.6333;1.2698;
885.3000;0.6325;1.2796;
885.6000;0.6309;1.2821;
885.9000;0.6317;1.2771;
886.2000;0.6300;1.2747;
886.5000;0.6325;1.2796;
886.8000;0.6300;1.2698;
887.1000;0.6276;1.2698;
887.4000;0.6325;1.2771;
887.7000;0.6317;1.2722;
888.0000;0.6284;1.2501;
888.3000;0.6317;1.2599;
888.6000;0.6300;1.2550;
888.9000;0.6292;1.2550;
889.2000;0.6333;1.2624;
889.5000;0.6333;1.2698;
889.8000;0.6333;1.2673;
890.1000;0.6317;1.2575;
890.4000;0.6325;1.2698;
890.7000;0.6341;1.2698;
891.0000;0.6341;1.2771;
891.3000;0.6398;1.2944;
891.6000;0.6333;1.2722;
891.9000;0.6341;1.2796;
892.2000;0.6325;1.2698;
892.5000;0.6317;1.2722;
892.8000;0.6333;1.2673;
893.1000;0.6317;1.2599;
893.4000;0.6374;1.2771;
893.7000;0.6325;1.2673;
894.0000;0.6284;1.2599;
894.3000;0.6300;1.2648;
894.6000;0.6325;1.2648;
894.9000;0.6325;1.2771;
895.2000;0.6317;1.2698;
895.5000;0.6317;1.2673;
895.8000;0.6325;1.2624;
896.1000;0.6317;1.2648;
896.4000;0.6309;1.2575;
896.7000;0.6317;1.2624;
897.0000;0.6333;1.2624;
897.3000;0.6333;1.2747;
897.6000;0.6325;1.2747;
897.9000;0.6333;1.2648;
898.2000;0.6309;1.2624;
898.5000;0.6325;1.2747;
898.8000;0.6317;1.2673;
899.1000;0.6317;1.2698;
899.4000;0.6309;1.2747;
899.7000;0.6317;1.2722;
900.0000;0.6325;1.2722;
900.3000;0.6292;1.2722;
900.6000;0.6284;1.2648;
900.9000;0.6333;1.2796;
901.2000;0.6333;1.2845;
901.5000;0.6325;1.2845;
901.8000;0.6325;1.2845;
902.1000;0.6333;1.2895;
902.4000;0.6341;1.2845;
902.7000;0.6333;1.2771;
903.0000;0.6317;1.2722;
903.3000;0.6341;1.2722;
903.6000;0.6317;1.2648;
903.9000;0.6341;1.2722;
904.2000;0.6309;1.2698;
904.5000;0.6325;1.2796;
904.8000;0.6341;1.2919;
905.1000;0.6333;1.2821;
905.4000;0.6292;1.2673;
905.7000;0.6325;1.2821;
906.0000;0.6341;1.2919;
906.3000;0.6292;1.2796;
906.6000;0.6325;1.2870;
906.9000;0.6390;1.3091;
907.2000;0.6309;1.2895;
907.5000;0.6333;1.2919;
907.8000;0.6309;1.2895;
908.1000;0.6268;1.2796;
908.4000;0.6333;1.2870;
908.7000;0.6374;1.2944;
909.0000;0.6300;1.2821;
909.3000;0.6357;1.2919;
909.6000;0.6317;1.2845;
909.9000;0.6317;1.2968;
910.2000;0.6292;1.2845;
910.5000;0.6317;1.2845;
910.8000;0.6325;1.2870;
911.1000;0.6341;1.2821;
911.4000;0.6349;1.2796;
911.7000;0.6325;1.2771;
912.0000;0.6325;1.2771;
912.3000;0.6252;1.2550;
912.6000;0.6309;1.2599;
912.9000;0.6300;1.2575;
913.2000;0.6317;1.2599;
913.5000;0.6325;1.2673;
913.8000;0.6309;1.2722;
914.1000;0.6317;1.2698;
914.4000;0.6300;1.2673;
914.7000;0.6300;1.2599;
915.0000;0.6325;1.2648;
915.3000;0.6333;1.2698;
915.6000;0.6325;1.2550;
915.9000;0.6325;1.2525;
916.2000;0.6325;1.2624;
916.5000;0.6325;1.2575;
916.8000;0.6341;1.2599;
917.1000;0.6317;1.2599;
917.4000;0.6317;1.2624;
917.7000;0.6325;1.2648;
918.0000;0.6300;1.2599;
918.3000;0.6309;1.2599;
918.6000;0.6309;1.2575;
918.9000;0.6309;1.2575;
919.2000;0.6325;1.2575;
919.5000;0.6284;1.2452;
919.8000;0.6325;1.2624;
920.1000;0.6317;1.2747;
920.4000;0.6309;1.2648;
920.7000;0.6309;1.2575;
921.0000;0.6284;1.2525;
921.3000;0.6325;1.2550;
921.6000;0.6300;1.2599;
921.9000;0.6309;1.2648;
922.2000;0.6349;1.2845;
922.5000;0.6276;1.2698;
922.8000;0.6325;1.2821;
923.1000;0.6317;1.2722;
923.4000;0.6300;1.2698;
923.7000;0.6300;1.2550;
924.0000;0.6341;1.2698;
924.3000;0.6260;1.2501;
924.6000;0.6300;1.2525;
924.9000;0.6276;1.2427;
925.2000;0.6349;1.2673;
925.5000;0.6309;1.2722;
925.8000;0.6317;1.2722;
926.1000;0.6268;1.2501;
926.4000;0.6292;1.2624;
926.7000;0.6317;1.2673;
927.0000;0.6309;1.2722;
927.3000;0.6292;1.2698;
927.6000;0.6317;1.2747;
927.9000;0.6292;1.2771;
928.2000;0.6325;1.2796;
928.5000;0.6325;1.2821;
928.8000;0.6317;1.2845;
929.1000;0.6292;1.2722;
929.4000;0.6333;1.2722;
929.7000;0.6309;1.2722;
930.0000;0.6292;1.2722;
930.3000;0.6300;1.2747;
930.6000;0.6325;1.2771;
930.9000;0.6325;1.2722;
931.2000;0.6309;1.2771;
931.5000;0.6333;1.2796;
931.8000;0.6317;1.2870;
932.1000;0.6357;1.3018;
932.4000;0.6317;1.2845;
932.7000;0.6292;1.2771;
933.0000;0.6309;1.2796;
933.3000;0.6333;1.2796;
933.6000;0.6284;1.2722;
933.9000;0.6309;1.2771;
934.2000;0.6309;1.2747;
934.5000;0.6317;1.2771;
934.8000;0.6325;1.2771;
935.1000;0.6284;1.2722;
935.4000;0.6325;1.2821;
935.7000;0.6309;1.2722;
936.0000;0.6357;1.2944;
936.3000;0.6300;1.2845;
936.6000;0.6325;1.2968;
936.9000;0.6260;1.2870;
937.2000;0.6317;1.2968;
937.5000;0.6300;1.2870;
937.8000;0.6357;1.2993;
938.1000;0.6309;1.2796;
938.4000;0.6317;1.2771;
938.7000;0.6276;1.2648;
939.0000;0.6325;1.2698;
939.3000;0.6317;1.2698;
939.6000;0.6162;1.2378;
939.9000;0.6325;1.2796;
940.2000;0.6292;1.2796;
940.5000;0.6309;1.2845;
940.8000;0.6431;1.3116;
941.1000;0.6325;1.2796;
941.4000;0.6390;1.2870;
941.7000;0.6333;1.2747;
942.0000;0.6341;1.2821;
942.3000;0.6325;1.2845;
942.6000;0.6309;1.2796;
942.9000;0.6317;1.2796;
943.2000;0.6309;1.2747;
943.5000;0.6317;1.2821;
943.8000;0.6325;1.2845;
944.1000;0.6276;1.2771;
944.4000;0.6317;1.2919;
944.7000;0.6365;1.2944;
945.0000;0.6284;1.2821;
945.3000;0.6300;1.2747;
945.6000;0.6292;1.2698;
945.9000;0.6309;1.2722;
946.2000;0.6309;1.2771;
946.5000;0.6309;1.2722;
946.8000;0.6292;1.2648;
947.1000;0.6292;1.2673;
947.4000;0.6333;1.2722;
947.7000;0.6292;1.2624;
948.0000;0.6284;1.2624;
948.3000;0.6317;1.2698;
948.6000;0.6333;1.2796;
948.9000;0.6317;1.2771;
949.2000;0.6300;1.2698;
949.5000;0.6300;1.2624;
949.8000;0.6325;1.2673;
950.1000;0.6317;1.2722;
950.4000;0.6300;1.2771;
950.7000;0.6325;1.2870;
951.0000;0.6300;1.2845;
951.3000;0.6317;1.2895;
951.6000;0.6292;1.2821;
951.9000;0.6357;1.2968;
952.2000;0.6284;1.2796;
952.5000;0.6300;1.2821;
952.8000;0.6292;1.2796;
953.1000;0.6300;1.2796;
953.4000;0.6309;1.2796;
953.7000;0.6243;1.2624;
954.0000;0.6300;1.2771;
954.3000;0.6300;1.2698;
954.6000;0.6317;1.2747;
954.9000;0.6341;1.2771;
955.2000;0.6357;1.2870;
955.5000;0.6292;1.2771;
955.8000;0.6309;1.2796;
956.1000;0.6292;1.2698;
956.4000;0.6284;1.2673;
956.7000;0.6276;1.2698;
957.0000;0.6276;1.2821;
957.3000;0.6243;1.2747;
957.6000;0.6317;1.2821;
957.9000;0.6276;1.2698;
958.2000;0.6325;1.2747;
958.5000;0.6203;1.2525;
958.8000;0.6317;1.2821;
959.1000;0.6325;1.2821;
959.4000;0.6309;1.2771;
959.7000;0.6309;1.2870;
960.0000;0.6341;1.2895;
960.3000;0.6309;1.2919;
960.6000;0.6325;1.2993;
960.9000;0.6325;1.3091;
961.2000;0.6317;1.2993;
961.5000;0.6365;1.3042;
961.8000;0.6325;1.3018;
962.1000;0.6276;1.2870;
962.4000;0.6406;1.3165;
962.7000;0.6300;1.2919;
963.0000;0.6325;1.2968;
963.3000;0.6300;1.2919;
963.6000;0.6309;1.2944;
963.9000;0.6317;1.2993;
964.2000;0.6317;1.2944;
964.5000;0.6309;1.2968;
964.8000;0.6317;1.2968;
965.1000;0.6325;1.2944;
965.4000;0.6341;1.3042;
965.7000;0.6325;1.2944;
966.0000;0.6268;1.2796;
966.3000;0.6317;1.2870;
966.6000;0.6309;1.2747;
966.9000;0.6333;1.2771;
967.2000;0.6309;1.2722;
967.5000;0.6292;1.2747;
967.8000;0.6325;1.2747;
968.1000;0.6317;1.2698;
968.4000;0.6300;1.2673;
968.7000;0.6276;1.2673;
969.0000;0.6317;1.2722;
969.3000;0.6357;1.2919;
969.6000;0.6252;1.2673;
969.9000;0.6300;1.2895;
970.2000;0.6333;1.2895;
970.5000;0.6300;1.2796;
970.8000;0.6284;1.2796;
971.1000;0.6292;1.2796;
971.4000;0.6211;1.2525;
971.7000;0.6317;1.2698;
972.0000;0.6292;1.2722;
972.3000;0.6309;1.2796;
972.6000;0.6276;1.2698;
972.9000;0.6300;1.2722;
973.2000;0.6309;1.2796;
973.5000;0.6292;1.2722;
973.8000;0.6284;1.2673;
974.1000;0.6292;1.2673;
974.4000;0.6300;1.2673;
974.7000;0.6317;1.2673;
975.0000;0.6300;1.2698;
975.3000;0.6292;1.2673;
975.6000;0.6309;1.2747;
975.9000;0.6292;1.2722;
976.2000;0.6333;1.2722;
976.5000;0.6317;1.2648;
976.8000;0.6325;1.2796;
977.1000;0.6317;1.2870;
977.4000;0.6292;1.2870;
977.7000;0.6317;1.2870;
978.0000;0.6309;1.2821;
978.3000;0.6309;1.2673;
978.6000;0.6309;1.2673;
978.9000;0.6300;1.2722;
979.2000;0.6349;1.2919;
979.5000;0.6300;1.2747;
979.8000;0.6325;1.2722;
980.1000;0.6260;1.2648;
980.4000;0.6300;1.2673;
980.7000;0.6309;1.2747;
981.0000;0.6309;1.2845;
981.3000;0.6341;1.2895;
981.6000;0.6235;1.2599;
981.9000;0.6284;1.2648;
982.2000;0.6284;1.2599;
982.5000;0.6276;1.2525;
982.8000;0.6349;1.2771;
983.1000;0.6300;1.2673;
983.4000;0.6235;1.2525;
983.7000;0.6284;1.2673;
984.0000;0.6317;1.2698;
984.3000;0.6317;1.2624;
984.6000;0.6357;1.2821;
984.9000;0.6292;1.2648;
985.2000;0.6284;1.2624;
985.5000;0.6300;1.2648;
985.8000;0.6309;1.2698;
986.1000;0.6309;1.2673;
986.4000;0.6300;1.2673;
986.7000;0.6309;1.2796;
987.0000;0.6309;1.2895;
987.3000;0.6317;1.2919;
987.6000;0.6284;1.2870;
987.9000;0.6300;1.2993;
988.2000;0.6300;1.2944;
988.5000;0.6317;1.2919;
988.8000;0.6284;1.2771;
989.1000;0.6309;1.2870;
989.4000;0.6325;1.2919;
989.7000;0.6317;1.2944;
990.0000;0.6292;1.2845;
990.3000;0.6309;1.2870;
990.6000;0.6300;1.2870;
990.9000;0.6317;1.2845;
991.2000;0.6268;1.2722;
991.5000;0.6398;1.3018;
991.8000;0.6300;1.2624;
992.1000;0.6284;1.2550;
992.4000;0.6382;1.2722;
992.7000;0.6284;1.2476;
993.0000;0.6300;1.2476;
993.3000;0.6252;1.2402;
993.6000;0.6276;1.2476;
993.9000;0.6300;1.2575;
994.2000;0.6292;1.2648;
994.5000;0.6382;1.2968;
994.8000;0.6300;1.2698;
995.1000;0.6309;1.2821;
995.4000;0.6284;1.2821;
995.7000;0.6341;1.2968;
996.0000;0.6300;1.2796;
996.3000;0.6300;1.2796;
996.6000;0.6268;1.2747;
996.9000;0.6268;1.2796;
997.2000;0.6292;1.2796;
997.5000;0.6260;1.2648;
997.8000;0.6284;1.2698;
998.1000;0.6292;1.2722;
998.4000;0.6292;1.2796;
998.7000;0.6292;1.2722;
999.0000;0.6333;1.2895;
999.3000;0.6300;1.2870;
999.6000;0.6284;1.2870;
999.9000;0.6300;1.2821;
1000.2000;0.6300;1.2771;
1000.5000;0.6309;1.2747;
1000.8000;0.6292;1.2771;
1001.1000;0.6325;1.2845;
1001.4000;0.6300;1.2845;
1001.7000;0.6300;1.2845;
1002.0000;0.6325;1.2845;
1002.3000;0.6309;1.2821;
1002.6000;0.6309;1.2821;
1002.9000;0.6300;1.2845;
1003.2000;0.6292;1.2771;
1003.5000;0.6309;1.2722;
1003.8000;0.6300;1.2698;
1004.1000;0.6309;1.2599;
1004.4000;0.6268;1.2599;
1004.7000;0.6300;1.2771;
1005.0000;0.6219;1.2550;
1005.3000;0.6292;1.2771;
1005.6000;0.6284;1.2771;
1005.9000;0.6276;1.2747;
1006.2000;0.6284;1.2870;
1006.5000;0.6268;1.2870;
1006.8000;0.6276;1.2870;
1007.1000;0.6284;1.2919;
1007.4000;0.6260;1.2845;
1007.7000;0.6317;1.2968;
1008.0000;0.6284;1.2919;
1008.3000;0.6300;1.2870;
1008.6000;0.6309;1.2919;
1008.9000;0.6300;1.2919;
1009.2000;0.6276;1.2919;
1009.5000;0.6317;1.2919;
1009.8000;0.6292;1.2895;
1010.1000;0.6227;1.2673;
1010.4000;0.6276;1.2771;
1010.7000;0.6284;1.2747;
1011.0000;0.6284;1.2845;
1011.3000;0.6300;1.2845;
1011.6000;0.6300;1.2870;
1011.9000;0.6333;1.2968;
1012.2000;0.6292;1.2870;
1012.5000;0.6349;1.2968;
1012.8000;0.6292;1.2796;
1013.1000;0.6276;1.2771;
1013.4000;0.6325;1.2796;
1013.7000;0.6317;1.2821;
1014.0000;0.6284;1.2747;
1014.3000;0.6260;1.2673;
1014.6000;0.6325;1.2722;
1014.9000;0.6300;1.2698;
1015.2000;0.6325;1.2796;
1015.5000;0.6309;1.2698;
1015.8000;0.6292;1.2722;
1016.1000;0.6276;1.2624;
1016.4000;0.6300;1.2698;
1016.7000;0.6349;1.2895;
1017.0000;0.6284;1.2747;
1017.3000;0.6276;1.2698;
1017.6000;0.6235;1.2599;
1017.9000;0.6276;1.2747;
1018.2000;0.6365;1.2919;
1018.5000;0.6284;1.2796;
1018.8000;0.6292;1.2747;
1019.1000;0.6292;1.2771;
1019.4000;0.6349;1.2919;
1019.7000;0.6276;1.2673;
1020.0000;0.6309;1.2747;
1020.3000;0.6284;1.2648;
1020.6000;0.6300;1.2722;
1020.9000;0.6284;1.2673;
1021.2000;0.6268;1.2673;
1021.5000;0.6268;1.2722;
1021.8000;0.6317;1.2747;
1022.1000;0.6276;1.2698;
1022.4000;0.6276;1.2648;
1022.7000;0.6276;1.2698;
1023.0000;0.6276;1.2673;
1023.3000;0.6292;1.2722;
1023.6000;0.6309;1.2698;
1023.9000;0.6284;1.2722;
1024.2000;0.6292;1.2648;
1024.5000;0.6292;1.2698;
1024.8000;0.6268;1.2698;
1025.1000;0.6300;1.2673;
1025.4000;0.6227;1.2550;
1025.7000;0.6292;1.2796;
1026.0000;0.6300;1.2895;
1026.3000;0.6276;1.2870;
1026.6000;0.6276;1.2821;
1026.9000;0.6268;1.2747;
1027.2000;0.6300;1.2821;
1027.5000;0.6300;1.2821;
1027.8000;0.6284;1.2895;
1028.1000;0.6317;1.2944;
1028.4000;0.6325;1.2993;
1028.7000;0.6317;1.2895;
1029.0000;0.6260;1.2747;
1029.3000;0.6292;1.2821;
1029.6000;0.6284;1.2821;
1029.9000;0.6260;1.2919;
1030.2000;0.6284;1.2944;
1030.5000;0.6292;1.2870;
1030.8000;0.6268;1.2821;
1031.1000;0.6292;1.2698;
1031.4000;0.6292;1.2648;
1031.7000;0.6292;1.2673;
1032.0000;0.6243;1.2550;
1032.3000;0.6268;1.2673;
1032.6000;0.6284;1.2673;
1032.9000;0.6292;1.2722;
1033.2000;0.6317;1.2747;
1033.5000;0.6292;1.2698;
1033.8000;0.6284;1.2575;
1034.1000;0.6252;1.2501;
1034.4000;0.6300;1.2476;
1034.7000;0.6284;1.2501;
1035.0000;0.6292;1.2476;
1035.3000;0.6276;1.2427;
1035.6000;0.6292;1.2550;
1035.9000;0.6300;1.2575;
1036.2000;0.6243;1.2476;
1036.5000;0.6292;1.2575;
1036.8000;0.6292;1.2624;
1037.1000;0.6284;1.2575;
1037.4000;0.6276;1.2575;
1037.7000;0.6260;1.2599;
1038.0000;0.6284;1.2550;
1038.3000;0.6284;1.2550;
1038.6000;0.6292;1.2575;
1038.9000;0.6268;1.2599;
1039.2000;0.6325;1.2747;
1039.5000;0.6276;1.2648;
1039.8000;0.6365;1.2968;
1040.1000;0.6252;1.2673;
1040.4000;0.6268;1.2673;
1040.7000;0.6268;1.2698;
1041.0000;0.6243;1.2648;
1041.3000;0.6235;1.2648;
1041.6000;0.6243;1.2624;
1041.9000;0.6276;1.2771;
1042.2000;0.6300;1.2796;
1042.5000;0.6276;1.2698;
1042.8000;0.6300;1.2722;
1043.1000;0.6268;1.2698;
1043.4000;0.6284;1.2673;
1043.7000;0.6300;1.2673;
1044.0000;0.6268;1.2575;
1044.3000;0.6292;1.2575;
1044.6000;0.6292;1.2648;
1044.9000;0.6317;1.2624;
1045.2000;0.6292;1.2550;
1045.5000;0.6300;1.2624;
1045.8000;0.6300;1.2648;
1046.1000;0.6276;1.2698;
1046.4000;0.6276;1.2722;
1046.7000;0.6276;1.2771;
1047.0000;0.6284;1.2747;
1047.3000;0.6284;1.2599;
1047.6000;0.6284;1.2599;
1047.9000;0.6243;1.2525;
1048.2000;0.6284;1.2550;
1048.5000;0.6309;1.2550;
1048.8000;0.6309;1.2648;
1049.1000;0.6300;1.2747;
1049.4000;0.6284;1.2747;
1049.7000;0.6292;1.2722;
1050.0000;0.6252;1.2575;
1050.3000;0.6292;1.2648;
1050.6000;0.6284;1.2673;
1050.9000;0.6284;1.2624;
1051.2000;0.6276;1.2599;
1051.5000;0.6333;1.2722;
1051.8000;0.6260;1.2673;
1052.1000;0.6260;1.2476;
1052.4000;0.6309;1.2550;
1052.7000;0.6268;1.2501;
1053.0000;0.6284;1.2476;
1053.3000;0.6284;1.2575;
1053.6000;0.6309;1.2673;
1053.9000;0.6292;1.2771;
1054.2000;0.6309;1.2698;
1054.5000;0.6325;1.2796;
1054.8000;0.6292;1.2747;
1055.1000;0.6333;1.2895;
1055.4000;0.6268;1.2722;
1055.7000;0.6268;1.2722;
1056.0000;0.6300;1.2845;
1056.3000;0.6292;1.2648;
1056.6000;0.6300;1.2673;
1056.9000;0.6276;1.2550;
1057.2000;0.6284;1.2550;
1057.5000;0.6268;1.2476;
1057.8000;0.6317;1.2624;
1058.1000;0.6300;1.2624;
1058.4000;0.6284;1.2599;
1058.7000;0.6300;1.2599;
1059.0000;0.6317;1.2575;
1059.3000;0.6309;1.2624;
1059.6000;0.6292;1.2575;
1059.9000;0.6325;1.2575;
1060.2000;0.6309;1.2550;
1060.5000;0.6284;1.2525;
1060.8000;0.6252;1.2378;
1061.1000;0.6292;1.2452;
1061.4000;0.6309;1.2575;
1061.7000;0.6284;1.2624;
1062.0000;0.6292;1.2648;
1062.3000;0.6276;1.2624;
1062.6000;0.6252;1.2501;
1062.9000;0.6300;1.2673;
1063.2000;0.6284;1.2624;
1063.5000;0.6292;1.2698;
1063.8000;0.6292;1.2698;
1064.1000;0.6292;1.2722;
1064.4000;0.6300;1.2698;
1064.7000;0.6284;1.2550;
1065.0000;0.6292;1.2501;
1065.3000;0.6333;1.2673;
1065.6000;0.6309;1.2624;
1065.9000;0.6268;1.2550;
1066.2000;0.6276;1.2525;
1066.5000;0.6276;1.2599;
1066.8000;0.6284;1.2648;
1067.1000;0.6300;1.2599;
1067.4000;0.6284;1.2575;
1067.7000;0.6284;1.2550;
1068.0000;0.6276;1.2550;
1068.3000;0.6284;1.2673;
1068.6000;0.6260;1.2648;
1068.9000;0.6309;1.2722;
1069.2000;0.6284;1.2722;
1069.5000;0.6284;1.2796;
1069.8000;0.6309;1.2796;
1070.1000;0.6317;1.2722;
1070.4000;0.6292;1.2698;
1070.7000;0.6300;1.2648;
1071.0000;0.6276;1.2673;
1071.3000;0.6284;1.2624;
1071.6000;0.6292;1.2673;
1071.9000;0.6276;1.2648;
1072.2000;0.6276;1.2673;
1072.5000;0.6300;1.2599;
1072.8000;0.6284;1.2525;
1073.1000;0.6300;1.2575;
1073.4000;0.6284;1.2501;
1073.7000;0.6292;1.2575;
1074.0000;0.6276;1.2452;
1074.3000;0.6292;1.2525;
1074.6000;0.6292;1.2452;
1074.9000;0.6300;1.2525;
1075.2000;0.6300;1.2550;
1075.5000;0.6252;1.2353;
1075.8000;0.6292;1.2501;
1076.1000;0.6243;1.2378;
1076.4000;0.6284;1.2550;
1076.7000;0.6292;1.2501;
1077.0000;0.6349;1.2747;
1077.3000;0.6268;1.2525;
1077.6000;0.6341;1.2698;
1077.9000;0.6268;1.2575;
1078.2000;0.6300;1.2673;
1078.5000;0.6292;1.2575;
1078.8000;0.6276;1.2575;
1079.1000;0.6260;1.2648;
1079.4000;0.6268;1.2624;
1079.7000;0.6284;1.2648;
1080.0000;0.6268;1.2599;
1080.3000;0.6268;1.2722;
1080.6000;0.6276;1.2771;
1080.9000;0.6317;1.2870;
1081.2000;0.6300;1.2895;
1081.5000;0.6276;1.2771;
1081.8000;0.6300;1.2821;
1082.1000;0.6284;1.2771;
1082.4000;0.6284;1.2698;
1082.7000;0.6292;1.2624;
1083.0000;0.6284;1.2648;
1083.3000;0.6300;1.2648;
1083.6000;0.6300;1.2722;
1083.9000;0.6292;1.2821;
1084.2000;0.6292;1.2821;
1084.5000;0.6300;1.2821;
1084.8000;0.6284;1.2796;
1085.1000;0.6276;1.2747;
1085.4000;0.6276;1.2722;
1085.7000;0.6276;1.2673;
1086.0000;0.6300;1.2648;
1086.3000;0.6284;1.2698;
1086.6000;0.6252;1.2673;
1086.9000;0.6284;1.2771;
1087.2000;0.6227;1.2624;
1087.5000;0.6300;1.2796;
1087.8000;0.6276;1.2747;
1088.1000;0.6284;1.2796;
1088.4000;0.6268;1.2747;
1088.7000;0.6276;1.2821;
1089.0000;0.6276;1.2919;
1089.3000;0.6260;1.2944;
1089.6000;0.6276;1.2919;
1089.9000;0.6276;1.2796;
1090.2000;0.6292;1.2722;
1090.5000;0.6276;1.2648;
1090.8000;0.6284;1.2624;
1091.1000;0.6300;1.2673;
1091.4000;0.6300;1.2648;
1091.7000;0.6284;1.2550;
1092.0000;0.6268;1.2550;
1092.3000;0.6317;1.2550;
1092.6000;0.6276;1.2427;
1092.9000;0.6276;1.2427;
1093.2000;0.6292;1.2452;
1093.5000;0.6333;1.2575;
1093.8000;0.6317;1.2575;
1094.1000;0.6309;1.2550;
1094.4000;0.6292;1.2501;
1094.7000;0.6292;1.2575;
1095.0000;0.6203;1.2378;
1095.3000;0.6284;1.2550;
1095.6000;0.6300;1.2673;
1095.9000;0.6276;1.2648;
1096.2000;0.6365;1.2870;
1096.5000;0.6284;1.2624;
1096.8000;0.6268;1.2501;
1097.1000;0.6292;1.2575;
1097.4000;0.6309;1.2648;
1097.7000;0.6309;1.2648;
1098.0000;0.6292;1.2673;
1098.3000;0.6227;1.2525;
1098.6000;0.6300;1.2624;
1098.9000;0.6284;1.2624;
1099.2000;0.6268;1.2476;
1099.5000;0.6317;1.2575;
1099.8000;0.6284;1.2525;
1100.1000;0.6309;1.2501;
1100.4000;0.6260;1.2427;
1100.7000;0.6284;1.2476;
1101.0000;0.6268;1.2476;
1101.3000;0.6284;1.2525;
1101.6000;0.6292;1.2501;
1101.9000;0.6219;1.2378;
1102.2000;0.6284;1.2673;
1102.5000;0.6276;1.2722;
1102.8000;0.6284;1.2698;
1103.1000;0.6276;1.2747;
1103.4000;0.6268;1.2722;
1103.7000;0.6292;1.2771;
1104.0000;0.6252;1.2673;
1104.3000;0.6284;1.2648;
1104.6000;0.6292;1.2648;
1104.9000;0.6276;1.2722;
1105.2000;0.6284;1.2747;
1105.5000;0.6252;1.2599;
1105.8000;0.6292;1.2722;
1106.1000;0.6260;1.2575;
1106.4000;0.6276;1.2673;
1106.7000;0.6276;1.2648;
1107.0000;0.6284;1.2624;
1107.3000;0.6276;1.2575;
1107.6000;0.6309;1.2599;
1107.9000;0.6292;1.2575;
1108.2000;0.6268;1.2575;
1108.5000;0.6284;1.2624;
1108.8000;0.6300;1.2648;
1109.1000;0.6276;1.2575;
1109.4000;0.6300;1.2599;
1109.7000;0.6227;1.2329;
1110.0000;0.6268;1.2378;
1110.3000;0.6268;1.2525;
1110.6000;0.6260;1.2501;
1110.9000;0.6203;1.2255;
1111.2000;0.6252;1.2378;
1111.5000;0.6309;1.2501;
1111.8000;0.6292;1.2501;
1112.1000;0.6284;1.2427;
1112.4000;0.6292;1.2452;
1112.7000;0.6284;1.2402;
1113.0000;0.6276;1.2525;
1113.3000;0.6300;1.2501;
1113.6000;0.6243;1.2501;
1113.9000;0.6276;1.2575;
1114.2000;0.6284;1.2525;
1114.5000;0.6284;1.2476;
1114.8000;0.6284;1.2476;
1115.1000;0.6268;1.2427;
1115.4000;0.6292;1.2452;
1115.7000;0.6276;1.2427;
1116.0000;0.6292;1.2476;
1116.3000;0.6276;1.2476;
1116.6000;0.6276;1.2550;
1116.9000;0.6276;1.2550;
1117.2000;0.6268;1.2525;
1117.5000;0.6300;1.2624;
1117.8000;0.6276;1.2673;
1118.1000;0.6300;1.2648;
1118.4000;0.6268;1.2599;
1118.7000;0.6268;1.2525;
1119.0000;0.6309;1.2550;
1119.3000;0.6284;1.2525;
1119.6000;0.6284;1.2501;
1119.9000;0.6276;1.2476;
1120.2000;0.6292;1.2476;
1120.5000;0.6276;1.2501;
1120.8000;0.6300;1.2575;
1121.1000;0.6268;1.2501;
1121.4000;0.6276;1.2501;
1121.7000;0.6292;1.2476;
1122.0000;0.6260;1.2476;
1122.3000;0.6252;1.2575;
1122.6000;0.6268;1.2673;
1122.9000;0.6268;1.2624;
1123.2000;0.6349;1.2895;
1123.5000;0.6260;1.2648;
1123.8000;0.6292;1.2747;
1124.1000;0.6276;1.2648;
1124.4000;0.6292;1.2698;
1124.7000;0.6284;1.2747;
1125.0000;0.6276;1.2747;
1125.3000;0.6268;1.2722;
1125.6000;0.6284;1.2698;
1125.9000;0.6260;1.2575;
1126.2000;0.6284;1.2575;
1126.5000;0.6292;1.2525;
1126.8000;0.6284;1.2624;
1127.1000;0.6292;1.2624;
1127.4000;0.6219;1.2353;
1127.7000;0.6284;1.2550;
1128.0000;0.6284;1.2575;
1128.3000;0.6300;1.2599;
1128.6000;0.6268;1.2550;
1128.9000;0.6284;1.2624;
1129.2000;0.6276;1.2599;
1129.5000;0.6284;1.2698;
1129.8000;0.6284;1.2722;
1130.1000;0.6276;1.2796;
1130.4000;0.6276;1.2821;
1130.7000;0.6284;1.2870;
1131.0000;0.6284;1.2870;
1131.3000;0.6243;1.2747;
1131.6000;0.6268;1.2747;
1131.9000;0.6276;1.2771;
1132.2000;0.6317;1.2821;
1132.5000;0.6284;1.2747;
1132.8000;0.6227;1.2599;
1133.1000;0.6268;1.2722;
1133.4000;0.6309;1.2796;
1133.7000;0.6276;1.2673;
1134.0000;0.6333;1.2870;
1134.3000;0.6203;1.2575;
1134.6000;0.6203;1.2525;
1134.9000;0.6292;1.2845;
1135.2000;0.6260;1.2821;
1135.5000;0.6276;1.2919;
1135.8000;0.6268;1.2895;
1136.1000;0.6292;1.2870;
1136.4000;0.6276;1.2870;
1136.7000;0.6268;1.2895;
1137.0000;0.6284;1.2895;
1137.3000;0.6276;1.2821;
1137.6000;0.6276;1.2796;
1137.9000;0.6276;1.2821;
1138.2000;0.6284;1.2747;
1138.5000;0.6317;1.2771;
1138.8000;0.6268;1.2747;
1139.1000;0.6268;1.2673;
1139.4000;0.6276;1.2747;
1139.7000;0.6276;1.2722;
1140.0000;0.6276;1.2845;
1140.3000;0.6284;1.2796;
1140.6000;0.6268;1.2673;
1140.9000;0.6284;1.2698;
1141.2000;0.6284;1.2673;
1141.5000;0.6300;1.2747;
1141.8000;0.6349;1.2895;
1142.1000;0.6227;1.2550;
1142.4000;0.6292;1.2747;
1142.7000;0.6325;1.2796;
1143.0000;0.6276;1.2648;
1143.3000;0.6284;1.2673;
1143.6000;0.6276;1.2648;
1143.9000;0.6276;1.2599;
1144.2000;0.6300;1.2673;
1144.5000;0.6268;1.2698;
1144.8000;0.6268;1.2550;
1145.1000;0.6252;1.2673;
1145.4000;0.6260;1.2722;
1145.7000;0.6276;1.2698;
1146.0000;0.6284;1.2673;
1146.3000;0.6260;1.2599;
1146.6000;0.6300;1.2624;
1146.9000;0.6235;1.2575;
1147.2000;0.6268;1.2698;
1147.5000;0.6300;1.2698;
1147.8000;0.6276;1.2673;
1148.1000;0.6300;1.2722;
1148.4000;0.6325;1.2845;
1148.7000;0.6276;1.2599;
1149.0000;0.6349;1.2747;
1149.3000;0.6284;1.2525;
1149.6000;0.6284;1.2550;
1149.9000;0.6276;1.2624;
1150.2000;0.6300;1.2698;
1150.5000;0.6235;1.2550;
1150.8000;0.6284;1.2575;
1151.1000;0.6276;1.2550;
1151.4000;0.6284;1.2624;
1151.7000;0.6284;1.2722;
1152.0000;0.6284;1.2747;
1152.3000;0.6276;1.2648;
1152.6000;0.6284;1.2698;
1152.9000;0.6284;1.2747;
1153.2000;0.6276;1.2796;
1153.5000;0.6292;1.2870;
1153.8000;0.6309;1.2771;
1154.1000;0.6292;1.2722;
1154.4000;0.6276;1.2698;
1154.7000;0.6300;1.2845;
1155.0000;0.6252;1.2722;
1155.3000;0.6276;1.2821;
1155.6000;0.6260;1.2870;
1155.9000;0.6276;1.2919;
1156.2000;0.6276;1.2895;
1156.5000;0.6252;1.2796;
1156.8000;0.6300;1.2845;
1157.1000;0.6284;1.2845;
1157.4000;0.6268;1.2796;
1157.7000;0.6276;1.2845;
1158.0000;0.6300;1.2944;
1158.3000;0.6260;1.2845;
1158.6000;0.6276;1.2895;
1158.9000;0.6292;1.2870;
1159.2000;0.6292;1.2870;
1159.5000;0.6268;1.2821;
1159.8000;0.6260;1.2821;
1160.1000;0.6268;1.2870;
1160.4000;0.6268;1.2821;
1160.7000;0.6276;1.2722;
1161.0000;0.6260;1.2624;
1161.3000;0.6227;1.2624;
1161.6000;0.6268;1.2698;
1161.9000;0.6268;1.2771;
1162.2000;0.6268;1.2821;
1162.5000;0.6276;1.2771;
1162.8000;0.6235;1.2771;
1163.1000;0.6276;1.2845;
1163.4000;0.6276;1.2796;
1163.7000;0.6276;1.2796;
1164.0000;0.6284;1.2771;
1164.3000;0.6309;1.2796;
1164.6000;0.6252;1.2747;
1164.9000;0.6252;1.2796;
1165.2000;0.6276;1.2821;
1165.5000;0.6284;1.2895;
1165.8000;0.6268;1.2895;
1166.1000;0.6284;1.2993;
1166.4000;0.6276;1.3018;
1166.7000;0.6284;1.2968;
1167.0000;0.6276;1.3018;
1167.3000;0.6276;1.2993;
1167.6000;0.6268;1.2944;
1167.9000;0.6292;1.2968;
1168.2000;0.6276;1.2968;
1168.5000;0.6195;1.2648;
1168.8000;0.6276;1.2771;
1169.1000;0.6276;1.2771;
1169.4000;0.6276;1.2771;
1169.7000;0.6284;1.2845;
1170.0000;0.6284;1.2870;
1170.3000;0.6268;1.2845;
1170.6000;0.6252;1.2870;
1170.9000;0.6357;1.3067;
1171.2000;0.6276;1.2796;
1171.5000;0.6268;1.2796;
1171.8000;0.6292;1.2796;
1172.1000;0.6309;1.2722;
1172.4000;0.6219;1.2599;
1172.7000;0.6284;1.2821;
1173.0000;0.6260;1.2722;
1173.3000;0.6284;1.2698;
1173.6000;0.6276;1.2673;
1173.9000;0.6195;1.2501;
1174.2000;0.6260;1.2599;
1174.5000;0.6252;1.2599;
1174.8000;0.6300;1.2722;
1175.1000;0.6276;1.2673;
1175.4000;0.6268;1.2747;
1175.7000;0.6268;1.2747;
1176.0000;0.6284;1.2747;
1176.3000;0.6284;1.2698;
1176.6000;0.6276;1.2747;
1176.9000;0.6292;1.2747;
1177.2000;0.6284;1.2673;
1177.5000;0.6276;1.2698;
1177.8000;0.6260;1.2747;
1178.1000;0.6276;1.2722;
1178.4000;0.6268;1.2648;
1178.7000;0.6309;1.2673;
1179.0000;0.6300;1.2722;
1179.3000;0.6284;1.2771;
1179.6000;0.6276;1.2821;
1179.9000;0.6252;1.2673;
1180.2000;0.6284;1.2771;
1180.5000;0.6284;1.2771;
1180.8000;0.6252;1.2698;
1181.1000;0.6276;1.2747;
1181.4000;0.6284;1.2698;
1181.7000;0.6252;1.2575;
1182.0000;0.6284;1.2575;
1182.3000;0.6276;1.2624;
1182.6000;0.6268;1.2722;
1182.9000;0.6268;1.2673;
1183.2000;0.6260;1.2771;
1183.5000;0.6276;1.2895;
1183.8000;0.6243;1.2895;
1184.1000;0.6268;1.3042;
1184.4000;0.6260;1.2993;
1184.7000;0.6260;1.2968;
1185.0000;0.6260;1.2919;
1185.3000;0.6268;1.2845;
1185.6000;0.6260;1.2870;
1185.9000;0.6260;1.2870;
1186.2000;0.6292;1.2821;
1186.5000;0.6276;1.2722;
1186.8000;0.6276;1.2771;
1187.1000;0.6276;1.2821;
1187.4000;0.6276;1.2870;
1187.7000;0.6292;1.2845;
1188.0000;0.6284;1.2796;
1188.3000;0.6268;1.2747;
1188.6000;0.6260;1.2771;
1188.9000;0.6276;1.2821;
1189.2000;0.6292;1.2895;
1189.5000;0.6292;1.2895;
1189.8000;0.6292;1.2845;
1190.1000;0.6276;1.2747;
1190.4000;0.6252;1.2698;
1190.7000;0.6292;1.2722;
1191.0000;0.6227;1.2648;
1191.3000;0.6300;1.2845;
1191.6000;0.6284;1.2747;
1191.9000;0.6268;1.2747;
1192.2000;0.6325;1.2919;
1192.5000;0.6300;1.2919;
1192.8000;0.6252;1.2771;
1193.1000;0.6276;1.2821;
1193.4000;0.6268;1.2771;
1193.7000;0.6260;1.2771;
1194.0000;0.6276;1.2771;
1194.3000;0.6349;1.2895;
1194.6000;0.6300;1.2845;
1194.9000;0.6276;1.2796;
1195.2000;0.6276;1.2747;
1195.5000;0.6268;1.2771;
1195.8000;0.6276;1.2796;
1196.1000;0.6260;1.2771;
1196.4000;0.6276;1.2796;
1196.7000;0.6284;1.2796;
1197.0000;0.6284;1.2698;
1197.3000;0.6276;1.2673;
1197.6000;0.6276;1.2648;
1197.9000;0.6186;1.2427;
1198.2000;0.6260;1.2624;
1198.5000;0.6260;1.2673;
1198.8000;0.6260;1.2722;
1199.1000;0.6276;1.2747;
1199.4000;0.6235;1.2648;
1199.7000;0.6292;1.2821;
1200.0000;0.6292;1.2747;
1200.3000;0.6268;1.2747;
1200.6000;0.6252;1.2673;
1200.9000;0.6268;1.2698;
1201.2000;0.6276;1.2673;
1201.5000;0.6317;1.2771;
1201.8000;0.6276;1.2722;
1202.1000;0.6268;1.2796;
1202.4000;0.6292;1.2821;
1202.7000;0.6268;1.2771;
1203.0000;0.6300;1.2870;
1203.3000;0.6252;1.2771;
1203.6000;0.6268;1.2771;
1203.9000;0.6276;1.2722;
1204.2000;0.6333;1.2821;
1204.5000;0.6268;1.2698;
1204.8000;0.6235;1.2575;
1205.1000;0.6260;1.2624;
1205.4000;0.6276;1.2771;
1205.7000;0.6268;1.2771;
1206.0000;0.6260;1.2673;
1206.3000;0.6276;1.2698;
1206.6000;0.6300;1.2771;
1206.9000;0.6276;1.2722;
1207.2000;0.6260;1.2624;
1207.5000;0.6276;1.2698;
1207.8000;0.6268;1.2673;
1208.1000;0.6268;1.2698;
1208.4000;0.6276;1.2722;
1208.7000;0.6260;1.2624;
1209.0000;0.6276;1.2624;
1209.3000;0.6276;1.2648;
1209.6000;0.6260;1.2550;
1209.9000;0.6243;1.2525;
1210.2000;0.6268;1.2673;
1210.5000;0.6243;1.2648;
1210.8000;0.6243;1.2698;
1211.1000;0.6252;1.2673;
1211.4000;0.6260;1.2796;
1211.7000;0.6276;1.2821;
1212.0000;0.6276;1.2771;
1212.3000;0.6268;1.2722;
1212.6000;0.6284;1.2796;
1212.9000;0.6284;1.2796;
1213.2000;0.6276;1.2796;
1213.5000;0.6243;1.2771;
1213.8000;0.6268;1.2747;
1214.1000;0.6243;1.2698;
1214.4000;0.6284;1.2771;
1214.7000;0.6268;1.2771;
1215.0000;0.6260;1.2747;
1215.3000;0.6276;1.2796;
1215.6000;0.6284;1.2944;
1215.9000;0.6292;1.2944;
1216.2000;0.6292;1.2796;
1216.5000;0.6276;1.2771;
1216.8000;0.6300;1.2870;
1217.1000;0.6268;1.2870;
1217.4000;0.6252;1.2845;
1217.7000;0.6268;1.2919;
1218.0000;0.6284;1.2944;
1218.3000;0.6309;1.3067;
1218.6000;0.6252;1.2895;
1218.9000;0.6268;1.2944;
1219.2000;0.6292;1.2968;
1219.5000;0.6268;1.2821;
1219.8000;0.6243;1.2796;
1220.1000;0.6309;1.3018;
1220.4000;0.6276;1.2821;
1220.7000;0.6300;1.2796;
1221.0000;0.6203;1.2501;
1221.3000;0.6268;1.2599;
1221.6000;0.6292;1.2648;
1221.9000;0.6284;1.2698;
1222.2000;0.6292;1.2673;
1222.5000;0.6284;1.2698;
1222.8000;0.6268;1.2771;
1223.1000;0.6276;1.2796;
1223.4000;0.6268;1.2821;
1223.7000;0.6268;1.2870;
1224.0000;0.6260;1.2870;
1224.3000;0.6292;1.2919;
1224.6000;0.6268;1.2870;
1224.9000;0.6268;1.2870;
1225.2000;0.6284;1.2870;
1225.5000;0.6260;1.2870;
1225.8000;0.6309;1.2944;
1226.1000;0.6268;1.2845;
1226.4000;0.6268;1.2919;
1226.7000;0.6252;1.2845;
1227.0000;0.6284;1.2919;
1227.3000;0.6300;1.2919;
1227.6000;0.6260;1.2821;
1227.9000;0.6260;1.2821;
1228.2000;0.6252;1.2747;
1228.5000;0.6292;1.2796;
1228.8000;0.6243;1.2648;
1229.1000;0.6284;1.2673;
1229.4000;0.6260;1.2575;
1229.7000;0.6284;1.2624;
1230.0000;0.6268;1.2476;
1230.3000;0.6268;1.2501;
1230.6000;0.6268;1.2550;
1230.9000;0.6260;1.2575;
1231.2000;0.6276;1.2698;
1231.5000;0.6276;1.2698;
1231.8000;0.6284;1.2771;
1232.1000;0.6276;1.2722;
1232.4000;0.6260;1.2698;
1232.7000;0.6243;1.2624;
1233.0000;0.6252;1.2599;
1233.3000;0.6268;1.2648;
1233.6000;0.6268;1.2599;
1233.9000;0.6300;1.2673;
1234.2000;0.6292;1.2796;
1234.5000;0.6268;1.2722;
1234.8000;0.6235;1.2624;
1235.1000;0.6235;1.2698;
1235.4000;0.6268;1.2821;
1235.7000;0.6260;1.2845;
1236.0000;0.6276;1.2870;
1236.3000;0.6284;1.2821;
1236.6000;0.6260;1.2747;
1236.9000;0.6243;1.2648;
1237.2000;0.6276;1.2722;
1237.5000;0.6211;1.2550;
1237.8000;0.6317;1.2722;
1238.1000;0.6235;1.2575;
1238.4000;0.6268;1.2648;
1238.7000;0.6235;1.2550;
1239.0000;0.6284;1.2648;
1239.3000;0.6243;1.2525;
1239.6000;0.6252;1.2525;
1239.9000;0.6260;1.2624;
1240.2000;0.6284;1.2648;
1240.5000;0.6284;1.2575;
1240.8000;0.6260;1.2501;
1241.1000;0.6382;1.2722;
1241.4000;0.6268;1.2402;
1241.7000;0.6268;1.2476;
1242.0000;0.6252;1.2402;
1242.3000;0.6268;1.2452;
1242.6000;0.6309;1.2525;
1242.9000;0.6268;1.2452;
1243.2000;0.6260;1.2452;
1243.5000;0.6186;1.2279;
1243.8000;0.6300;1.2525;
1244.1000;0.6252;1.2427;
1244.4000;0.6260;1.2476;
1244.7000;0.6260;1.2501;
1245.0000;0.6357;1.2845;
1245.3000;0.6325;1.2771;
1245.6000;0.6268;1.2624;
1245.9000;0.6276;1.2648;
1246.2000;0.6276;1.2698;
1246.5000;0.6276;1.2673;
1246.8000;0.6260;1.2575;
1247.1000;0.6260;1.2550;
1247.4000;0.6268;1.2624;
1247.7000;0.6284;1.2550;
1248.0000;0.6276;1.2599;
1248.3000;0.6243;1.2550;
1248.6000;0.6292;1.2722;
1248.9000;0.6276;1.2698;
1249.2000;0.6268;1.2673;
1249.5000;0.6268;1.2698;
1249.8000;0.6260;1.2698;
1250.1000;0.6276;1.2747;
1250.4000;0.6276;1.2771;
1250.7000;0.6268;1.2771;
1251.0000;0.6268;1.2698;
1251.3000;0.6260;1.2648;
1251.6000;0.6260;1.2648;
1251.9000;0.6276;1.2722;
1252.2000;0.6260;1.2673;
1252.5000;0.6284;1.2648;
1252.8000;0.6284;1.2673;
1253.1000;0.6276;1.2673;
1253.4000;0.6276;1.2624;
1253.7000;0.6260;1.2599;
1254.0000;0.6260;1.2525;
1254.3000;0.6284;1.2550;
1254.6000;0.6268;1.2550;
1254.9000;0.6276;1.2476;
1255.2000;0.6284;1.2452;
1255.5000;0.6276;1.2575;
1255.8000;0.6317;1.2525;
1256.1000;0.6284;1.2525;
1256.4000;0.6284;1.2550;
1256.7000;0.6276;1.2599;
1257.0000;0.6292;1.2673;
1257.3000;0.6268;1.2648;
1257.6000;0.6292;1.2747;
1257.9000;0.6276;1.2722;
1258.2000;0.6284;1.2599;
1258.5000;0.6276;1.2624;
1258.8000;0.6219;1.2427;
1259.1000;0.6276;1.2575;
1259.4000;0.6260;1.2575;
1259.7000;0.6268;1.2525;
1260.0000;0.6195;1.2353;
1260.3000;0.6268;1.2575;
1260.6000;0.6309;1.2771;
1260.9000;0.6243;1.2624;
1261.2000;0.6276;1.2722;
1261.5000;0.6309;1.2771;
1261.8000;0.6276;1.2771;
1262.1000;0.6276;1.2722;
1262.4000;0.6260;1.2648;
1262.7000;0.6268;1.2599;
1263.0000;0.6284;1.2575;
1263.3000;0.6252;1.2476;
1263.6000;0.6292;1.2452;
1263.9000;0.6268;1.2575;
1264.2000;0.6260;1.2648;
1264.5000;0.6235;1.2525;
1264.8000;0.6235;1.2476;
1265.1000;0.6260;1.2525;
1265.4000;0.6268;1.2575;
1265.7000;0.6235;1.2525;
1266.0000;0.6349;1.2895;
1266.3000;0.6252;1.2599;
1266.6000;0.6178;1.2476;
1266.9000;0.6260;1.2624;
1267.2000;0.6252;1.2673;
1267.5000;0.6243;1.2698;
1267.8000;0.6260;1.2648;
1268.1000;0.6235;1.2599;
1268.4000;0.6260;1.2673;
1268.7000;0.6252;1.2648;
1269.0000;0.6252;1.2673;
1269.3000;0.6268;1.2821;
1269.6000;0.6268;1.2870;
1269.9000;0.6276;1.2821;
1270.2000;0.6276;1.2747;
1270.5000;0.6252;1.2673;
1270.8000;0.6292;1.2747;
1271.1000;0.6276;1.2747;
1271.4000;0.6211;1.2673;
1271.7000;0.6252;1.2796;
1272.0000;0.6260;1.2747;
1272.3000;0.6268;1.2870;
1272.6000;0.6260;1.2919;
1272.9000;0.6252;1.2895;
1273.2000;0.6235;1.2796;
1273.5000;0.6260;1.2821;
1273.8000;0.6300;1.2845;
1274.1000;0.6260;1.2821;
1274.4000;0.6292;1.2870;
1274.7000;0.6260;1.2771;
1275.0000;0.6260;1.2747;
1275.3000;0.6268;1.2821;
1275.6000;0.6243;1.2747;
1275.9000;0.6284;1.2722;
1276.2000;0.6268;1.2747;
1276.5000;0.6268;1.2747;
1276.8000;0.6243;1.2698;
1277.1000;0.6268;1.2698;
1277.4000;0.6284;1.2698;
1277.7000;0.6252;1.2722;
1278.0000;0.6243;1.2698;
1278.3000;0.6268;1.2796;
1278.6000;0.6292;1.2919;
1278.9000;0.6235;1.2722;
1279.2000;0.6252;1.2771;
1279.5000;0.6268;1.2673;
1279.8000;0.6284;1.2698;
1280.1000;0.6276;1.2698;
1280.4000;0.6276;1.2575;
1280.7000;0.6260;1.2575;
1281.0000;0.6276;1.2550;
1281.3000;0.6178;1.2353;
1281.6000;0.6260;1.2525;
1281.9000;0.6284;1.2525;
1282.2000;0.6268;1.2624;
1282.5000;0.6260;1.2673;
1282.8000;0.6235;1.2575;
1283.1000;0.6276;1.2673;
1283.4000;0.6268;1.2648;
1283.7000;0.6268;1.2747;
1284.0000;0.6300;1.2771;
1284.3000;0.6252;1.2599;
1284.6000;0.6243;1.2624;
1284.9000;0.6284;1.2747;
1285.2000;0.6276;1.2796;
1285.5000;0.6276;1.2722;
1285.8000;0.6292;1.2722;
1286.1000;0.6292;1.2698;
1286.4000;0.6276;1.2722;
1286.7000;0.6276;1.2624;
1287.0000;0.6276;1.2771;
1287.3000;0.6219;1.2673;
1287.6000;0.6268;1.2771;
1287.9000;0.6252;1.2821;
1288.2000;0.6260;1.2845;
1288.5000;0.6252;1.2821;
1288.8000;0.6276;1.2895;
1289.1000;0.6300;1.2993;
1289.4000;0.6252;1.2944;
1289.7000;0.6219;1.2796;
1290.0000;0.6260;1.2919;
1290.3000;0.6276;1.2796;
1290.6000;0.6243;1.2747;
1290.9000;0.6309;1.2821;
1291.2000;0.6268;1.2648;
1291.5000;0.6292;1.2796;
1291.8000;0.6284;1.2796;
1292.1000;0.6276;1.2747;
1292.4000;0.6268;1.2821;
1292.7000;0.6292;1.2895;
1293.0000;0.6268;1.2845;
1293.3000;0.6268;1.2845;
1293.6000;0.6276;1.2845;
1293.9000;0.6268;1.2870;
1294.2000;0.6268;1.2870;
1294.5000;0.6268;1.2870;
1294.8000;0.6243;1.2919;
1295.1000;0.6268;1.3042;
1295.4000;0.6252;1.2944;
1295.7000;0.6276;1.2870;
1296.0000;0.6252;1.2821;
1296.3000;0.6276;1.2821;
1296.6000;0.6268;1.2845;
1296.9000;0.6268;1.2796;
1297.2000;0.6292;1.2845;
1297.5000;0.6260;1.2771;
1297.8000;0.6284;1.2796;
1298.1000;0.6268;1.2796;
1298.4000;0.6276;1.2796;
1298.7000;0.6300;1.2919;
1299.0000;0.6243;1.2845;
1299.3000;0.6243;1.2747;
1299.6000;0.6333;1.2944;
1299.9000;0.6276;1.2845;
1300.2000;0.6243;1.2845;
1300.5000;0.6317;1.2944;
1300.8000;0.6252;1.2771;
1301.1000;0.6252;1.2771;
1301.4000;0.6268;1.2845;
1301.7000;0.6268;1.2796;
1302.0000;0.6252;1.2771;
1302.3000;0.6268;1.2796;
1302.6000;0.6252;1.2771;
1302.9000;0.6284;1.2845;
1303.2000;0.6276;1.2895;
1303.5000;0.6260;1.2821;
1303.8000;0.6341;1.2968;
1304.1000;0.6252;1.2747;
1304.4000;0.6268;1.2747;
1304.7000;0.6243;1.2722;
1305.0000;0.6195;1.2501;
1305.3000;0.6268;1.2575;
1305.6000;0.6284;1.2624;
1305.9000;0.6284;1.2648;
1306.2000;0.6292;1.2698;
1306.5000;0.6252;1.2624;
1306.8000;0.6292;1.2771;
1307.1000;0.6292;1.2845;
1307.4000;0.6252;1.2845;
1307.7000;0.6268;1.2870;
1308.0000;0.6300;1.2895;
1308.3000;0.6252;1.2895;
1308.6000;0.6203;1.2821;
1308.9000;0.6284;1.3042;
1309.2000;0.6268;1.2993;
1309.5000;0.6276;1.3042;
1309.8000;0.6268;1.3018;
1310.1000;0.6268;1.2870;
1310.4000;0.6276;1.2895;
1310.7000;0.6235;1.2895;
1311.0000;0.6276;1.3042;
1311.3000;0.6284;1.3067;
1311.6000;0.6260;1.2968;
1311.9000;0.6276;1.2968;
1312.2000;0.6276;1.2993;
1312.5000;0.6252;1.2870;
1312.8000;0.6276;1.2968;
1313.1000;0.6260;1.2919;
1313.4000;0.6243;1.2722;
1313.7000;0.6260;1.2821;
1314.0000;0.6227;1.2747;
1314.3000;0.6284;1.2919;
1314.6000;0.6276;1.2919;
1314.9000;0.6178;1.2599;
1315.2000;0.6260;1.2747;
1315.5000;0.6268;1.2722;
1315.8000;0.6260;1.2673;
1316.1000;0.6252;1.2599;
1316.4000;0.6268;1.2747;
1316.7000;0.6260;1.2845;
1317.0000;0.6260;1.2895;
1317.3000;0.6260;1.2944;
1317.6000;0.6260;1.2895;
1317.9000;0.6235;1.2821;
1318.2000;0.6260;1.2895;
1318.5000;0.6252;1.2747;
1318.8000;0.6276;1.2821;
1319.1000;0.6252;1.2796;
1319.4000;0.6260;1.2821;
1319.7000;0.6260;1.2747;
1320.0000;0.6284;1.2870;
1320.3000;0.6243;1.2796;
1320.6000;0.6243;1.2845;
1320.9000;0.6252;1.2821;
1321.2000;0.6276;1.2821;
1321.5000;0.6309;1.2944;
1321.8000;0.6252;1.2796;
1322.1000;0.6268;1.2821;
1322.4000;0.6252;1.2919;
1322.7000;0.6252;1.2944;
1323.0000;0.6268;1.2919;
1323.3000;0.6341;1.3116;
1323.6000;0.6260;1.2919;
1323.9000;0.6260;1.2796;
1324.2000;0.6243;1.2796;
1324.5000;0.6252;1.2796;
1324.8000;0.6284;1.2722;
1325.1000;0.6252;1.2648;
1325.4000;0.6235;1.2624;
1325.7000;0.6260;1.2648;
1326.0000;0.6268;1.2550;
1326.3000;0.6268;1.2550;
1326.6000;0.6260;1.2550;
1326.9000;0.6382;1.2845;
1327.2000;0.6268;1.2648;
1327.5000;0.6276;1.2575;
1327.8000;0.6276;1.2624;
1328.1000;0.6276;1.2673;
1328.4000;0.6268;1.2648;
1328.7000;0.6260;1.2722;
1329.0000;0.6260;1.2673;
1329.3000;0.6252;1.2673;
1329.6000;0.6268;1.2747;
1329.9000;0.6292;1.2722;
1330.2000;0.6276;1.2648;
1330.5000;0.6252;1.2648;
1330.8000;0.6276;1.2648;
1331.1000;0.6260;1.2501;
1331.4000;0.6276;1.2624;
1331.7000;0.6268;1.2624;
1332.0000;0.6260;1.2722;
1332.3000;0.6268;1.2747;
1332.6000;0.6284;1.2771;
1332.9000;0.6243;1.2698;
1333.2000;0.6268;1.2796;
1333.5000;0.6309;1.2821;
1333.8000;0.6252;1.2796;
1334.1000;0.6276;1.2821;
1334.4000;0.6268;1.2919;
1334.7000;0.6235;1.2771;
1335.0000;0.6195;1.2673;
1335.3000;0.6260;1.2796;
1335.6000;0.6260;1.2845;
1335.9000;0.6284;1.2895;
1336.2000;0.6268;1.2895;
1336.5000;0.6252;1.2870;
1336.8000;0.6268;1.2845;
1337.1000;0.6252;1.2771;
1337.4000;0.6219;1.2673;
1337.7000;0.6235;1.2673;
1338.0000;0.6260;1.2895;
1338.3000;0.6276;1.2821;
1338.6000;0.6268;1.2771;
1338.9000;0.6268;1.2747;
1339.2000;0.6235;1.2722;
1339.5000;0.6260;1.2771;
1339.8000;0.6260;1.2771;
1340.1000;0.6276;1.2821;
1340.4000;0.6252;1.2747;
1340.7000;0.6268;1.2698;
1341.0000;0.6260;1.2673;
1341.3000;0.6260;1.2673;
1341.6000;0.6300;1.2698;
1341.9000;0.6268;1.2624;
1342.2000;0.6292;1.2698;
1342.5000;0.6260;1.2648;
1342.8000;0.6309;1.2722;
1343.1000;0.6260;1.2624;
1343.4000;0.6349;1.2919;
1343.7000;0.6252;1.2624;
1344.0000;0.6284;1.2673;
1344.3000;0.6219;1.2476;
1344.6000;0.6243;1.2575;
1344.9000;0.6268;1.2648;
1345.2000;0.6260;1.2722;
1345.5000;0.6260;1.2722;
1345.8000;0.6292;1.2821;
1346.1000;0.6243;1.2747;
1346.4000;0.6268;1.2821;
1346.7000;0.6252;1.2796;
1347.0000;0.6260;1.2771;
1347.3000;0.6260;1.2821;
1347.6000;0.6252;1.2845;
1347.9000;0.6260;1.2870;
1348.2000;0.6243;1.2895;
1348.5000;0.6260;1.2944;
1348.8000;0.6276;1.2944;
1349.1000;0.6268;1.2944;
1349.4000;0.6276;1.2944;
1349.7000;0.6252;1.2895;
1350.0000;0.6260;1.2919;
1350.3000;0.6276;1.2968;
1350.6000;0.6276;1.2870;
1350.9000;0.6276;1.2845;
1351.2000;0.6284;1.2796;
1351.5000;0.6268;1.2747;
1351.8000;0.6268;1.2698;
1352.1000;0.6276;1.2747;
1352.4000;0.6260;1.2575;
1352.7000;0.6260;1.2648;
1353.0000;0.6260;1.2648;
1353.3000;0.6300;1.2599;
1353.6000;0.6252;1.2550;
1353.9000;0.6300;1.2722;
1354.2000;0.6276;1.2648;
1354.5000;0.6276;1.2722;
1354.8000;0.6268;1.2673;
1355.1000;0.6268;1.2673;
1355.4000;0.6268;1.2698;
1355.7000;0.6268;1.2771;
1356.0000;0.6260;1.2796;
1356.3000;0.6219;1.2722;
1356.6000;0.6252;1.2919;
1356.9000;0.6243;1.2845;
1357.2000;0.6260;1.2895;
1357.5000;0.6260;1.2821;
1357.8000;0.6309;1.2895;
1358.1000;0.6260;1.2747;
1358.4000;0.6292;1.2895;
1358.7000;0.6260;1.2747;
1359.0000;0.6252;1.2722;
1359.3000;0.6252;1.2771;
1359.6000;0.6309;1.2821;
1359.9000;0.6235;1.2624;
1360.2000;0.6284;1.2747;
1360.5000;0.6317;1.2747;
1360.8000;0.6276;1.2673;
1361.1000;0.6268;1.2673;
1361.4000;0.6309;1.2796;
1361.7000;0.6260;1.2673;
1362.0000;0.6235;1.2648;
1362.3000;0.6252;1.2599;
1362.6000;0.6268;1.2673;
1362.9000;0.6268;1.2771;
1363.2000;0.6268;1.2698;
1363.5000;0.6268;1.2673;
1363.8000;0.6260;1.2575;
1364.1000;0.6252;1.2550;
1364.4000;0.6276;1.2624;
1364.7000;0.6268;1.2673;
1365.0000;0.6276;1.2747;
1365.3000;0.6284;1.2821;
1365.6000;0.6260;1.2771;
1365.9000;0.6276;1.2771;
1366.2000;0.6252;1.2821;
1366.5000;0.6300;1.2968;
1366.8000;0.6260;1.2845;
1367.1000;0.6292;1.2895;
1367.4000;0.6284;1.2870;
1367.7000;0.6292;1.2919;
1368.0000;0.6260;1.2845;
1368.3000;0.6211;1.2673;
1368.6000;0.6252;1.2698;
1368.9000;0.6243;1.2698;
1369.2000;0.6260;1.2698;
1369.5000;0.6260;1.2648;
1369.8000;0.6252;1.2624;
1370.1000;0.6252;1.2575;
1370.4000;0.6243;1.2501;
1370.7000;0.6268;1.2624;
1371.0000;0.6260;1.2747;
1371.3000;0.6268;1.2771;
1371.6000;0.6243;1.2698;
1371.9000;0.6252;1.2722;
1372.2000;0.6268;1.2698;
1372.5000;0.6252;1.2575;
1372.8000;0.6252;1.2624;
1373.1000;0.6243;1.2673;
1373.4000;0.6268;1.2747;
1373.7000;0.6268;1.2796;
1374.0000;0.6243;1.2796;
1374.3000;0.6260;1.2895;
1374.6000;0.6260;1.2821;
1374.9000;0.6276;1.2821;
1375.2000;0.6276;1.2796;
1375.5000;0.6260;1.2747;
1375.8000;0.6260;1.2796;
1376.1000;0.6260;1.2771;
1376.4000;0.6276;1.2821;
1376.7000;0.6252;1.2747;
1377.0000;0.6178;1.2427;
1377.3000;0.6268;1.2624;
1377.6000;0.6268;1.2698;
1377.9000;0.6252;1.2575;
1378.2000;0.6260;1.2624;
1378.5000;0.6260;1.2698;
1378.8000;0.6260;1.2673;
1379.1000;0.6243;1.2722;
1379.4000;0.6243;1.2648;
1379.7000;0.6235;1.2575;
1380.0000;0.6260;1.2624;
1380.3000;0.6260;1.2648;
1380.6000;0.6300;1.2722;
1380.9000;0.6252;1.2747;
1381.2000;0.6268;1.2771;
1381.5000;0.6268;1.2821;
1381.8000;0.6235;1.2648;
1382.1000;0.6284;1.2771;
1382.4000;0.6252;1.2722;
1382.7000;0.6243;1.2722;
1383.0000;0.6292;1.2821;
1383.3000;0.6260;1.2648;
1383.6000;0.6243;1.2599;
1383.9000;0.6260;1.2673;
1384.2000;0.6252;1.2698;
1384.5000;0.6260;1.2845;
1384.8000;0.6284;1.3018;
1385.1000;0.6309;1.3141;
1385.4000;0.6268;1.3018;
1385.7000;0.6292;1.3190;
1386.0000;0.6260;1.3042;
1386.3000;0.6260;1.3018;
1386.6000;0.6292;1.3116;
1386.9000;0.6268;1.3091;
1387.2000;0.6268;1.3042;
1387.5000;0.6268;1.2993;
1387.8000;0.6260;1.2944;
1388.1000;0.6252;1.2895;
1388.4000;0.6260;1.2895;
1388.7000;0.6260;1.2870;
1389.0000;0.6260;1.2944;
1389.3000;0.6300;1.2993;
1389.6000;0.6243;1.2895;
1389.9000;0.6252;1.2895;
1390.2000;0.6260;1.2944;
1390.5000;0.6341;1.3165;
1390.8000;0.6203;1.2673;
1391.1000;0.6268;1.2919;
1391.4000;0.6276;1.2845;
1391.7000;0.6276;1.2821;
1392.0000;0.6252;1.2796;
1392.3000;0.6268;1.2821;
1392.6000;0.6284;1.2771;
1392.9000;0.6268;1.2821;
1393.2000;0.6268;1.2845;
1393.5000;0.6260;1.2747;
1393.8000;0.6243;1.2747;
1394.1000;0.6268;1.2796;
1394.4000;0.6252;1.2747;
1394.7000;0.6252;1.2698;
1395.0000;0.6260;1.2747;
1395.3000;0.6284;1.2895;
1395.6000;0.6260;1.2895;
1395.9000;0.6333;1.3067;
1396.2000;0.6260;1.2919;
1396.5000;0.6268;1.2944;
1396.8000;0.6235;1.2870;
1397.1000;0.6260;1.2919;
1397.4000;0.6252;1.2870;
1397.7000;0.6227;1.2821;
1398.0000;0.6243;1.2821;
1398.3000;0.6260;1.2821;
1398.6000;0.6243;1.2845;
1398.9000;0.6243;1.2796;
1399.2000;0.6268;1.2796;
1399.5000;0.6252;1.2821;
1399.8000;0.6235;1.2845;
