time/ms;Fluo/V;P700 deltaI/I x10³;
-199.8000;0.9402;1.4026;
-199.5000;0.9410;1.3977;
-199.2000;0.9402;1.3854;
-198.9000;0.9402;1.3805;
-198.6000;0.9410;1.3879;
-198.3000;0.9426;1.3879;
-198.0000;0.9402;1.3879;
-197.7000;0.9394;1.3854;
-197.4000;0.9410;1.3805;
-197.1000;0.9402;1.3780;
-196.8000;0.9410;1.3854;
-196.5000;0.9402;1.3903;
-196.2000;0.9402;1.3854;
-195.9000;0.9402;1.3780;
-195.6000;0.9402;1.3780;
-195.3000;0.9377;1.3854;
-195.0000;0.9410;1.3879;
-194.7000;0.9402;1.3830;
-194.4000;0.9410;1.3854;
-194.1000;0.9402;1.3879;
-193.8000;0.9410;1.3928;
-193.5000;0.9402;1.3928;
-193.2000;0.9410;1.3903;
-192.9000;0.9394;1.3854;
-192.6000;0.9394;1.3854;
-192.3000;0.9410;1.3805;
-192.0000;0.9402;1.3830;
-191.7000;0.9402;1.3879;
-191.4000;0.9394;1.3830;
-191.1000;0.9402;1.3903;
-190.8000;0.9410;1.3903;
-190.5000;0.9280;1.3633;
-190.2000;0.9418;1.3903;
-189.9000;0.9402;1.3928;
-189.6000;0.9410;1.3879;
-189.3000;0.9410;1.3879;
-189.0000;0.9410;1.3928;
-188.7000;0.9426;1.3879;
-188.4000;0.9353;1.3731;
-188.1000;0.9410;1.4002;
-187.8000;0.9394;1.4076;
-187.5000;0.9394;1.4076;
-187.2000;0.9402;1.4150;
-186.9000;0.9385;1.4051;
-186.6000;0.9394;1.3928;
-186.3000;0.9394;1.3928;
-186.0000;0.9385;1.3830;
-185.7000;0.9410;1.3928;
-185.4000;0.9410;1.3879;
-185.1000;0.9418;1.3928;
-184.8000;0.9410;1.4026;
-184.5000;0.9394;1.3977;
-184.2000;0.9402;1.4026;
-183.9000;0.9402;1.4051;
-183.6000;0.9410;1.4100;
-183.3000;0.9410;1.4076;
-183.0000;0.9426;1.4076;
-182.7000;0.9410;1.4076;
-182.4000;0.9402;1.3928;
-182.1000;0.9394;1.4002;
-181.8000;0.9394;1.4100;
-181.5000;0.9426;1.4150;
-181.2000;0.9402;1.4100;
-180.9000;0.9402;1.4125;
-180.6000;0.9451;1.4100;
-180.3000;0.9402;1.4002;
-180.0000;0.9353;1.3928;
-179.7000;0.9402;1.4002;
-179.4000;0.9402;1.3953;
-179.1000;0.9402;1.4026;
-178.8000;0.9394;1.4100;
-178.5000;0.9377;1.4051;
-178.2000;0.9394;1.3977;
-177.9000;0.9410;1.3977;
-177.6000;0.9402;1.4002;
-177.3000;0.9418;1.3977;
-177.0000;0.9394;1.4002;
-176.7000;0.9451;1.4174;
-176.4000;0.9402;1.4076;
-176.1000;0.9377;1.3977;
-175.8000;0.9377;1.3953;
-175.5000;0.9361;1.3854;
-175.2000;0.9394;1.3854;
-174.9000;0.9385;1.3830;
-174.6000;0.9377;1.3731;
-174.3000;0.9410;1.3805;
-174.0000;0.9369;1.3805;
-173.7000;0.9402;1.3854;
-173.4000;0.9377;1.3854;
-173.1000;0.9426;1.3928;
-172.8000;0.9410;1.3854;
-172.5000;0.9410;1.3780;
-172.2000;0.9402;1.3780;
-171.9000;0.9394;1.3731;
-171.6000;0.9426;1.3707;
-171.3000;0.9402;1.3731;
-171.0000;0.9394;1.3756;
-170.7000;0.9394;1.3805;
-170.4000;0.9402;1.3854;
-170.1000;0.9410;1.3805;
-169.8000;0.9402;1.3805;
-169.5000;0.9410;1.3805;
-169.2000;0.9402;1.3830;
-168.9000;0.9410;1.3928;
-168.6000;0.9418;1.3953;
-168.3000;0.9402;1.3903;
-168.0000;0.9410;1.3977;
-167.7000;0.9418;1.4026;
-167.4000;0.9426;1.3977;
-167.1000;0.9402;1.4002;
-166.8000;0.9402;1.3953;
-166.5000;0.9418;1.4076;
-166.2000;0.9402;1.3953;
-165.9000;0.9410;1.3903;
-165.6000;0.9402;1.3953;
-165.3000;0.9426;1.3977;
-165.0000;0.9426;1.3953;
-164.7000;0.9410;1.3928;
-164.4000;0.9377;1.3903;
-164.1000;0.9426;1.3953;
-163.8000;0.9402;1.3953;
-163.5000;0.9410;1.3903;
-163.2000;0.9426;1.3953;
-162.9000;0.9426;1.4002;
-162.6000;0.9410;1.3977;
-162.3000;0.9402;1.3854;
-162.0000;0.9394;1.3854;
-161.7000;0.9402;1.3780;
-161.4000;0.9410;1.3879;
-161.1000;0.9459;1.4026;
-160.8000;0.9451;1.3977;
-160.5000;0.9385;1.3854;
-160.2000;0.9418;1.3953;
-159.9000;0.9418;1.3928;
-159.6000;0.9410;1.3953;
-159.3000;0.9402;1.3903;
-159.0000;0.9426;1.3928;
-158.7000;0.9410;1.4002;
-158.4000;0.9426;1.4026;
-158.1000;0.9402;1.4026;
-157.8000;0.9402;1.4076;
-157.5000;0.9402;1.4026;
-157.2000;0.9451;1.4150;
-156.9000;0.9418;1.4100;
-156.6000;0.9451;1.4223;
-156.3000;0.9434;1.4100;
-156.0000;0.9532;1.4322;
-155.7000;0.9410;1.4002;
-155.4000;0.9402;1.3953;
-155.1000;0.9418;1.3977;
-154.8000;0.9434;1.3928;
-154.5000;0.9418;1.3830;
-154.2000;0.9402;1.3854;
-153.9000;0.9410;1.3879;
-153.6000;0.9418;1.3854;
-153.3000;0.9402;1.3756;
-153.0000;0.9402;1.3731;
-152.7000;0.9402;1.3756;
-152.4000;0.9410;1.3805;
-152.1000;0.9418;1.3928;
-151.8000;0.9410;1.3928;
-151.5000;0.9402;1.3903;
-151.2000;0.9394;1.3928;
-150.9000;0.9451;1.4002;
-150.6000;0.9402;1.3780;
-150.3000;0.9410;1.3805;
-150.0000;0.9402;1.3707;
-149.7000;0.9410;1.3559;
-149.4000;0.9394;1.3584;
-149.1000;0.9402;1.3534;
-148.8000;0.9402;1.3461;
-148.5000;0.9402;1.3510;
-148.2000;0.9434;1.3633;
-147.9000;0.9385;1.3682;
-147.6000;0.9410;1.3780;
-147.3000;0.9418;1.3805;
-147.0000;0.9426;1.3756;
-146.7000;0.9410;1.3830;
-146.4000;0.9402;1.3780;
-146.1000;0.9402;1.3756;
-145.8000;0.9410;1.3805;
-145.5000;0.9394;1.3731;
-145.2000;0.9402;1.3854;
-144.9000;0.9377;1.3854;
-144.6000;0.9410;1.3805;
-144.3000;0.9402;1.3633;
-144.0000;0.9394;1.3584;
-143.7000;0.9394;1.3510;
-143.4000;0.9410;1.3584;
-143.1000;0.9402;1.3657;
-142.8000;0.9402;1.3682;
-142.5000;0.9394;1.3805;
-142.2000;0.9410;1.3879;
-141.9000;0.9385;1.3830;
-141.6000;0.9394;1.3830;
-141.3000;0.9337;1.3682;
-141.0000;0.9361;1.3805;
-140.7000;0.9410;1.3854;
-140.4000;0.9418;1.3903;
-140.1000;0.9377;1.3879;
-139.8000;0.9385;1.3903;
-139.5000;0.9369;1.3928;
-139.2000;0.9394;1.3953;
-138.9000;0.9385;1.3879;
-138.6000;0.9385;1.3903;
-138.3000;0.9483;1.4100;
-138.0000;0.9353;1.3805;
-137.7000;0.9410;1.3903;
-137.4000;0.9402;1.3928;
-137.1000;0.9426;1.4002;
-136.8000;0.9418;1.3977;
-136.5000;0.9394;1.3830;
-136.2000;0.9418;1.3830;
-135.9000;0.9394;1.3731;
-135.6000;0.9410;1.3805;
-135.3000;0.9418;1.3805;
-135.0000;0.9369;1.3707;
-134.7000;0.9394;1.3707;
-134.4000;0.9385;1.3731;
-134.1000;0.9394;1.3756;
-133.8000;0.9385;1.3805;
-133.5000;0.9385;1.3780;
-133.2000;0.9410;1.3879;
-132.9000;0.9394;1.3903;
-132.6000;0.9394;1.3903;
-132.3000;0.9410;1.3928;
-132.0000;0.9410;1.3953;
-131.7000;0.9418;1.3928;
-131.4000;0.9418;1.3953;
-131.1000;0.9410;1.3928;
-130.8000;0.9418;1.3953;
-130.5000;0.9410;1.3879;
-130.2000;0.9377;1.3879;
-129.9000;0.9410;1.3830;
-129.6000;0.9402;1.3756;
-129.3000;0.9410;1.3756;
-129.0000;0.9394;1.3805;
-128.7000;0.9385;1.3805;
-128.4000;0.9402;1.3756;
-128.1000;0.9418;1.3756;
-127.8000;0.9402;1.3731;
-127.5000;0.9402;1.3805;
-127.2000;0.9369;1.3756;
-126.9000;0.9402;1.3731;
-126.6000;0.9418;1.3731;
-126.3000;0.9402;1.3756;
-126.0000;0.9402;1.3731;
-125.7000;0.9402;1.3805;
-125.4000;0.9426;1.3903;
-125.1000;0.9402;1.3830;
-124.8000;0.9377;1.3731;
-124.5000;0.9385;1.3830;
-124.2000;0.9385;1.3854;
-123.9000;0.9394;1.3903;
-123.6000;0.9402;1.3903;
-123.3000;0.9394;1.3903;
-123.0000;0.9451;1.4051;
-122.7000;0.9418;1.3953;
-122.4000;0.9345;1.3731;
-122.1000;0.9410;1.3854;
-121.8000;0.9410;1.3805;
-121.5000;0.9410;1.3682;
-121.2000;0.9410;1.3707;
-120.9000;0.9394;1.3682;
-120.6000;0.9394;1.3707;
-120.3000;0.9418;1.3756;
-120.0000;0.9426;1.3756;
-119.7000;0.9410;1.3731;
-119.4000;0.9402;1.3707;
-119.1000;0.9410;1.3780;
-118.8000;0.9410;1.3805;
-118.5000;0.9402;1.3854;
-118.2000;0.9394;1.3879;
-117.9000;0.9402;1.3879;
-117.6000;0.9394;1.3854;
-117.3000;0.9377;1.3830;
-117.0000;0.9394;1.3879;
-116.7000;0.9385;1.3879;
-116.4000;0.9394;1.3953;
-116.1000;0.9353;1.3830;
-115.8000;0.9402;1.3879;
-115.5000;0.9288;1.3682;
-115.2000;0.9410;1.4002;
-114.9000;0.9418;1.4076;
-114.6000;0.9402;1.4051;
-114.3000;0.9394;1.3977;
-114.0000;0.9418;1.3977;
-113.7000;0.9402;1.4002;
-113.4000;0.9394;1.3977;
-113.1000;0.9394;1.4051;
-112.8000;0.9394;1.3953;
-112.5000;0.9402;1.3953;
-112.2000;0.9402;1.4026;
-111.9000;0.9402;1.3928;
-111.6000;0.9394;1.3928;
-111.3000;0.9402;1.3879;
-111.0000;0.9402;1.3854;
-110.7000;0.9410;1.3953;
-110.4000;0.9394;1.3928;
-110.1000;0.9402;1.3928;
-109.8000;0.9410;1.3953;
-109.5000;0.9394;1.3928;
-109.2000;0.9418;1.4002;
-108.9000;0.9361;1.3854;
-108.6000;0.9434;1.4076;
-108.3000;0.9410;1.4026;
-108.0000;0.9410;1.3928;
-107.7000;0.9361;1.3928;
-107.4000;0.9410;1.4051;
-107.1000;0.9410;1.4100;
-106.8000;0.9418;1.4026;
-106.5000;0.9402;1.3953;
-106.2000;0.9410;1.3977;
-105.9000;0.9410;1.4125;
-105.6000;0.9402;1.4150;
-105.3000;0.9402;1.4199;
-105.0000;0.9394;1.4199;
-104.7000;0.9402;1.4150;
-104.4000;0.9426;1.4199;
-104.1000;0.9394;1.4125;
-103.8000;0.9394;1.4076;
-103.5000;0.9402;1.4076;
-103.2000;0.9385;1.4076;
-102.9000;0.9385;1.4051;
-102.6000;0.9410;1.4125;
-102.3000;0.9402;1.4174;
-102.0000;0.9410;1.4150;
-101.7000;0.9394;1.4125;
-101.4000;0.9385;1.4125;
-101.1000;0.9394;1.4150;
-100.8000;0.9394;1.4125;
-100.5000;0.9410;1.4076;
-100.2000;0.9385;1.3953;
-99.9000;0.9418;1.3953;
-99.6000;0.9410;1.3977;
-99.3000;0.9410;1.4026;
-99.0000;0.9402;1.4051;
-98.7000;0.9402;1.4026;
-98.4000;0.9402;1.4076;
-98.1000;0.9402;1.4076;
-97.8000;0.9361;1.3928;
-97.5000;0.9434;1.4076;
-97.2000;0.9385;1.4002;
-96.9000;0.9361;1.3854;
-96.6000;0.9394;1.3854;
-96.3000;0.9410;1.3854;
-96.0000;0.9410;1.3830;
-95.7000;0.9418;1.3805;
-95.4000;0.9369;1.3756;
-95.1000;0.9394;1.3756;
-94.8000;0.9402;1.3756;
-94.5000;0.9402;1.3780;
-94.2000;0.9418;1.3805;
-93.9000;0.9402;1.3731;
-93.6000;0.9459;1.3903;
-93.3000;0.9467;1.3953;
-93.0000;0.9402;1.3830;
-92.7000;0.9402;1.3854;
-92.4000;0.9394;1.3903;
-92.1000;0.9394;1.3854;
-91.8000;0.9394;1.3707;
-91.5000;0.9385;1.3657;
-91.2000;0.9402;1.3731;
-90.9000;0.9410;1.3879;
-90.6000;0.9402;1.3879;
-90.3000;0.9410;1.3903;
-90.0000;0.9410;1.3854;
-89.7000;0.9394;1.3756;
-89.4000;0.9418;1.3731;
-89.1000;0.9410;1.3682;
-88.8000;0.9410;1.3682;
-88.5000;0.9410;1.3756;
-88.2000;0.9418;1.3780;
-87.9000;0.9385;1.3731;
-87.6000;0.9402;1.3731;
-87.3000;0.9394;1.3780;
-87.0000;0.9394;1.3756;
-86.7000;0.9418;1.3879;
-86.4000;0.9394;1.3854;
-86.1000;0.9410;1.3805;
-85.8000;0.9426;1.3879;
-85.5000;0.9385;1.3854;
-85.2000;0.9418;1.3928;
-84.9000;0.9402;1.4026;
-84.6000;0.9402;1.4051;
-84.3000;0.9394;1.4076;
-84.0000;0.9410;1.4223;
-83.7000;0.9394;1.4223;
-83.4000;0.9385;1.4174;
-83.1000;0.9394;1.4125;
-82.8000;0.9426;1.4199;
-82.5000;0.9402;1.4150;
-82.2000;0.9377;1.4100;
-81.9000;0.9402;1.4100;
-81.6000;0.9410;1.4150;
-81.3000;0.9377;1.4125;
-81.0000;0.9394;1.4150;
-80.7000;0.9402;1.4248;
-80.4000;0.9385;1.4100;
-80.1000;0.9394;1.4100;
-79.8000;0.9385;1.4051;
-79.5000;0.9402;1.4026;
-79.2000;0.9345;1.3903;
-78.9000;0.9410;1.4076;
-78.6000;0.9394;1.4002;
-78.3000;0.9394;1.4002;
-78.0000;0.9418;1.4100;
-77.7000;0.9410;1.4051;
-77.4000;0.9459;1.4125;
-77.1000;0.9410;1.4100;
-76.8000;0.9442;1.4174;
-76.5000;0.9394;1.4076;
-76.2000;0.9418;1.4174;
-75.9000;0.9418;1.4199;
-75.6000;0.9410;1.4150;
-75.3000;0.9402;1.4051;
-75.0000;0.9402;1.4051;
-74.7000;0.9402;1.3977;
-74.4000;0.9377;1.3953;
-74.1000;0.9385;1.3879;
-73.8000;0.9385;1.3953;
-73.5000;0.9434;1.4076;
-73.2000;0.9394;1.3953;
-72.9000;0.9418;1.4076;
-72.6000;0.9402;1.4125;
-72.3000;0.9402;1.4100;
-72.0000;0.9402;1.4051;
-71.7000;0.9402;1.4125;
-71.4000;0.9394;1.4248;
-71.1000;0.9402;1.4223;
-70.8000;0.9377;1.4100;
-70.5000;0.9394;1.4125;
-70.2000;0.9410;1.4076;
-69.9000;0.9394;1.4076;
-69.6000;0.9394;1.3953;
-69.3000;0.9394;1.3953;
-69.0000;0.9402;1.4002;
-68.7000;0.9402;1.4150;
-68.4000;0.9426;1.4273;
-68.1000;0.9385;1.4199;
-67.8000;0.9385;1.4223;
-67.5000;0.9402;1.4223;
-67.2000;0.9394;1.4199;
-66.9000;0.9418;1.4174;
-66.6000;0.9385;1.4100;
-66.3000;0.9385;1.4076;
-66.0000;0.9377;1.4051;
-65.7000;0.9402;1.4051;
-65.4000;0.9385;1.4002;
-65.1000;0.9377;1.3953;
-64.8000;0.9402;1.3953;
-64.5000;0.9377;1.3854;
-64.2000;0.9402;1.3928;
-63.9000;0.9426;1.3953;
-63.6000;0.9442;1.4026;
-63.3000;0.9426;1.4026;
-63.0000;0.9402;1.3953;
-62.7000;0.9402;1.3879;
-62.4000;0.9426;1.3953;
-62.1000;0.9426;1.3977;
-61.8000;0.9394;1.3928;
-61.5000;0.9426;1.4002;
-61.2000;0.9410;1.4026;
-60.9000;0.9369;1.4002;
-60.6000;0.9394;1.4026;
-60.3000;0.9402;1.4051;
-60.0000;0.9402;1.4026;
-59.7000;0.9402;1.3928;
-59.4000;0.9410;1.3953;
-59.1000;0.9402;1.3830;
-58.8000;0.9394;1.3780;
-58.5000;0.9410;1.3879;
-58.2000;0.9402;1.3953;
-57.9000;0.9410;1.4051;
-57.6000;0.9402;1.4002;
-57.3000;0.9385;1.4002;
-57.0000;0.9410;1.4051;
-56.7000;0.9442;1.4051;
-56.4000;0.9394;1.3928;
-56.1000;0.9394;1.3928;
-55.8000;0.9402;1.4026;
-55.5000;0.9410;1.4076;
-55.2000;0.9394;1.3953;
-54.9000;0.9410;1.3854;
-54.6000;0.9402;1.3879;
-54.3000;0.9402;1.3854;
-54.0000;0.9402;1.3928;
-53.7000;0.9394;1.3903;
-53.4000;0.9442;1.3977;
-53.1000;0.9426;1.4026;
-52.8000;0.9418;1.4076;
-52.5000;0.9410;1.4002;
-52.2000;0.9426;1.3977;
-51.9000;0.9418;1.3928;
-51.6000;0.9418;1.3953;
-51.3000;0.9410;1.3879;
-51.0000;0.9442;1.3903;
-50.7000;0.9410;1.3879;
-50.4000;0.9410;1.3854;
-50.1000;0.9394;1.3805;
-49.8000;0.9410;1.3854;
-49.5000;0.9434;1.3928;
-49.2000;0.9418;1.3928;
-48.9000;0.9418;1.3879;
-48.6000;0.9410;1.3977;
-48.3000;0.9410;1.3977;
-48.0000;0.9377;1.3830;
-47.7000;0.9394;1.3854;
-47.4000;0.9402;1.3879;
-47.1000;0.9418;1.3953;
-46.8000;0.9402;1.3903;
-46.5000;0.9426;1.3953;
-46.2000;0.9402;1.3977;
-45.9000;0.9402;1.3977;
-45.6000;0.9410;1.3953;
-45.3000;0.9467;1.4174;
-45.0000;0.9369;1.3953;
-44.7000;0.9369;1.3854;
-44.4000;0.9394;1.3903;
-44.1000;0.9402;1.3903;
-43.8000;0.9394;1.3903;
-43.5000;0.9402;1.3977;
-43.2000;0.9402;1.4076;
-42.9000;0.9410;1.4100;
-42.6000;0.9385;1.4076;
-42.3000;0.9402;1.4051;
-42.0000;0.9394;1.3977;
-41.7000;0.9385;1.3977;
-41.4000;0.9410;1.4002;
-41.1000;0.9410;1.3953;
-40.8000;0.9418;1.4002;
-40.5000;0.9410;1.3953;
-40.2000;0.9434;1.4026;
-39.9000;0.9402;1.4002;
-39.6000;0.9451;1.4125;
-39.3000;0.9410;1.4076;
-39.0000;0.9442;1.4076;
-38.7000;0.9402;1.4002;
-38.4000;0.9402;1.4026;
-38.1000;0.9410;1.3953;
-37.8000;0.9426;1.4051;
-37.5000;0.9410;1.4100;
-37.2000;0.9402;1.4100;
-36.9000;0.9410;1.4125;
-36.6000;0.9345;1.3879;
-36.3000;0.9402;1.3928;
-36.0000;0.9410;1.3830;
-35.7000;0.9402;1.3756;
-35.4000;0.9426;1.3830;
-35.1000;0.9394;1.3657;
-34.8000;0.9394;1.3633;
-34.5000;0.9402;1.3682;
-34.2000;0.9491;1.3928;
-33.9000;0.9394;1.3780;
-33.6000;0.9385;1.3756;
-33.3000;0.9377;1.3731;
-33.0000;0.9394;1.3731;
-32.7000;0.9385;1.3830;
-32.4000;0.9410;1.3780;
-32.1000;0.9394;1.3682;
-31.8000;0.9394;1.3657;
-31.5000;0.9402;1.3682;
-31.2000;0.9402;1.3707;
-30.9000;0.9394;1.3633;
-30.6000;0.9410;1.3731;
-30.3000;0.9410;1.3780;
-30.0000;0.9402;1.3805;
-29.7000;0.9402;1.3805;
-29.4000;0.9442;1.3977;
-29.1000;0.9402;1.3903;
-28.8000;0.9402;1.3953;
-28.5000;0.9410;1.3854;
-28.2000;0.9402;1.3756;
-27.9000;0.9394;1.3731;
-27.6000;0.9410;1.3805;
-27.3000;0.9410;1.3879;
-27.0000;0.9402;1.3830;
-26.7000;0.9418;1.3854;
-26.4000;0.9410;1.3928;
-26.1000;0.9410;1.3903;
-25.8000;0.9402;1.3879;
-25.5000;0.9418;1.3928;
-25.2000;0.9410;1.3879;
-24.9000;0.9394;1.3953;
-24.6000;0.9410;1.4002;
-24.3000;0.9328;1.3830;
-24.0000;0.9418;1.4002;
-23.7000;0.9402;1.3953;
-23.4000;0.9320;1.3756;
-23.1000;0.9369;1.3830;
-22.8000;0.9402;1.3854;
-22.5000;0.9385;1.3830;
-22.2000;0.9434;1.3903;
-21.9000;0.9410;1.3780;
-21.6000;0.9385;1.3756;
-21.3000;0.9410;1.3854;
-21.0000;0.9402;1.3928;
-20.7000;0.9402;1.3953;
-20.4000;0.9394;1.3879;
-20.1000;0.9394;1.3928;
-19.8000;0.9394;1.3953;
-19.5000;0.9385;1.3903;
-19.2000;0.9394;1.3903;
-18.9000;0.9410;1.3953;
-18.6000;0.9402;1.3903;
-18.3000;0.9426;1.3928;
-18.0000;0.9402;1.3903;
-17.7000;0.9394;1.3854;
-17.4000;0.9426;1.3903;
-17.1000;0.9426;1.3854;
-16.8000;0.9394;1.3854;
-16.5000;0.9394;1.3854;
-16.2000;0.9410;1.3805;
-15.9000;0.9410;1.3805;
-15.6000;0.9442;1.3977;
-15.3000;0.9402;1.3928;
-15.0000;0.9410;1.3903;
-14.7000;0.9402;1.3879;
-14.4000;0.9426;1.3953;
-14.1000;0.9434;1.3928;
-13.8000;0.9353;1.3805;
-13.5000;0.9418;1.3805;
-13.2000;0.9385;1.3633;
-12.9000;0.9385;1.3682;
-12.6000;0.9410;1.3756;
-12.3000;0.9410;1.3756;
-12.0000;0.9402;1.3657;
-11.7000;0.9377;1.3657;
-11.4000;0.9385;1.3707;
-11.1000;0.9410;1.3682;
-10.8000;0.9418;1.3756;
-10.5000;0.9418;1.3682;
-10.2000;0.9402;1.3633;
-9.9000;0.9426;1.3608;
-9.6000;0.9402;1.3559;
-9.3000;0.9434;1.3657;
-9.0000;0.9426;1.3756;
-8.7000;0.9394;1.3707;
-8.4000;0.9418;1.3756;
-8.1000;0.9361;1.3608;
-7.8000;0.9418;1.3780;
-7.5000;0.9402;1.3756;
-7.2000;0.9369;1.3682;
-6.9000;0.9402;1.3707;
-6.6000;0.9402;1.3805;
-6.3000;0.9410;1.3879;
-6.0000;0.9394;1.3879;
-5.7000;0.9410;1.3903;
-5.4000;0.9426;1.3903;
-5.1000;0.9377;1.3805;
-4.8000;0.9426;1.4026;
-4.5000;0.9434;1.4051;
-4.2000;0.9426;1.3953;
-3.9000;0.9418;1.3879;
-3.6000;0.9353;1.3657;
-3.3000;0.9434;1.3756;
-3.0000;0.9394;1.3707;
-2.7000;0.9402;1.3805;
-2.4000;0.9385;1.3854;
-2.1000;0.9402;1.3879;
-1.8000;0.9394;1.3854;
-1.5000;0.9394;1.3879;
-1.2000;0.9418;1.3928;
-0.9000;0.9385;1.3830;
-0.6000;0.9442;1.4002;
-0.3000;0.9548;1.4248;
0.0000;0.9548;1.4248;
0.3000;0.9605;1.4076;
0.6000;0.9890;1.4371;
0.9000;1.0199;1.4863;
1.2000;1.0468;1.5355;
1.5000;1.0680;1.5847;
1.8000;1.0899;1.6340;
2.1000;1.0932;1.6364;
2.4000;1.1030;1.6487;
2.7000;1.1127;1.6709;
3.0000;1.1209;1.6856;
3.3000;1.1266;1.6979;
3.6000;1.1331;1.7102;
3.9000;1.1380;1.7078;
4.2000;1.1412;1.7152;
4.5000;1.1469;1.7226;
4.8000;1.1510;1.7176;
5.1000;1.1551;1.7201;
5.4000;1.1583;1.7078;
5.7000;1.1632;1.7102;
6.0000;1.1648;1.7127;
6.3000;1.1665;1.7176;
6.6000;1.1689;1.7250;
6.9000;1.1738;1.7373;
7.2000;1.1754;1.7299;
7.5000;1.1770;1.7275;
7.8000;1.1795;1.7299;
8.1000;1.1811;1.7275;
8.4000;1.1803;1.7250;
8.7000;1.1844;1.7226;
9.0000;1.1860;1.7102;
9.3000;1.1860;1.6979;
9.6000;1.1893;1.6979;
9.9000;1.1917;1.7078;
10.2000;1.1917;1.7078;
10.5000;1.1844;1.6930;
10.8000;1.1966;1.7250;
11.1000;1.1982;1.7226;
11.4000;1.2007;1.7324;
11.7000;1.1998;1.7373;
12.0000;1.1998;1.7349;
12.3000;1.2015;1.7373;
12.6000;1.2015;1.7349;
12.9000;1.2047;1.7324;
13.2000;1.2088;1.7349;
13.5000;1.2055;1.7275;
13.8000;1.2063;1.7349;
14.1000;1.2063;1.7349;
14.4000;1.2096;1.7324;
14.7000;1.2145;1.7447;
15.0000;1.2129;1.7373;
15.3000;1.2112;1.7299;
15.6000;1.2129;1.7373;
15.9000;1.2137;1.7422;
16.2000;1.2153;1.7398;
16.5000;1.2145;1.7472;
16.8000;1.2243;1.7742;
17.1000;1.2161;1.7570;
17.4000;1.2186;1.7595;
17.7000;1.2161;1.7545;
18.0000;1.2153;1.7619;
18.3000;1.2194;1.7619;
18.6000;1.2202;1.7619;
18.9000;1.2210;1.7619;
19.2000;1.2186;1.7570;
19.5000;1.2202;1.7693;
19.8000;1.2210;1.7668;
20.1000;1.2153;1.7373;
20.4000;1.2226;1.7521;
20.7000;1.2267;1.7570;
21.0000;1.2234;1.7521;
21.3000;1.2243;1.7521;
21.6000;1.2234;1.7545;
21.9000;1.2243;1.7472;
22.2000;1.2259;1.7472;
22.5000;1.2300;1.7595;
22.8000;1.2243;1.7472;
23.1000;1.2251;1.7373;
23.4000;1.2259;1.7447;
23.7000;1.2300;1.7521;
24.0000;1.2275;1.7447;
24.3000;1.2259;1.7398;
24.6000;1.2259;1.7398;
24.9000;1.2291;1.7496;
25.2000;1.2177;1.7176;
25.5000;1.2283;1.7349;
25.8000;1.2275;1.7324;
26.1000;1.2283;1.7299;
26.4000;1.2283;1.7250;
26.7000;1.2283;1.7349;
27.0000;1.2283;1.7201;
27.3000;1.2283;1.7201;
27.6000;1.2308;1.7275;
27.9000;1.2243;1.7176;
28.2000;1.2291;1.7250;
28.5000;1.2316;1.7373;
28.8000;1.2308;1.7373;
29.1000;1.2308;1.7373;
29.4000;1.2291;1.7373;
29.7000;1.2316;1.7472;
30.0000;1.2308;1.7299;
30.3000;1.2308;1.7226;
30.6000;1.2300;1.7201;
30.9000;1.2308;1.7299;
31.2000;1.2308;1.7226;
31.5000;1.2316;1.7176;
31.8000;1.2300;1.7078;
32.1000;1.2324;1.7152;
32.4000;1.2332;1.7201;
32.7000;1.2348;1.7201;
33.0000;1.2332;1.7201;
33.3000;1.2348;1.7201;
33.6000;1.2332;1.7078;
33.9000;1.2324;1.7029;
34.2000;1.2332;1.6930;
34.5000;1.2324;1.6955;
34.8000;1.2316;1.6979;
35.1000;1.2340;1.7078;
35.4000;1.2340;1.7176;
35.7000;1.2340;1.7226;
36.0000;1.2340;1.7226;
36.3000;1.2357;1.7226;
36.6000;1.2373;1.7299;
36.9000;1.2373;1.7349;
37.2000;1.2348;1.7324;
37.5000;1.2357;1.7226;
37.8000;1.2365;1.7152;
38.1000;1.2414;1.7250;
38.4000;1.2357;1.7226;
38.7000;1.2397;1.7373;
39.0000;1.2373;1.7250;
39.3000;1.2357;1.7176;
39.6000;1.2373;1.7176;
39.9000;1.2348;1.7201;
40.2000;1.2381;1.7275;
40.5000;1.2389;1.7324;
40.8000;1.2373;1.7176;
41.1000;1.2348;1.7102;
41.4000;1.2365;1.7201;
41.7000;1.2381;1.7299;
42.0000;1.2381;1.7275;
42.3000;1.2373;1.7226;
42.6000;1.2373;1.7275;
42.9000;1.2373;1.7275;
43.2000;1.2365;1.7275;
43.5000;1.2348;1.7201;
43.8000;1.2373;1.7201;
44.1000;1.2389;1.7201;
44.4000;1.2373;1.7201;
44.7000;1.2340;1.7176;
45.0000;1.2381;1.7201;
45.3000;1.2389;1.7275;
45.6000;1.2389;1.7275;
45.9000;1.2405;1.7373;
46.2000;1.2373;1.7299;
46.5000;1.2381;1.7226;
46.8000;1.2397;1.7250;
47.1000;1.2365;1.7127;
47.4000;1.2381;1.7102;
47.7000;1.2365;1.7078;
48.0000;1.2397;1.7152;
48.3000;1.2389;1.7053;
48.6000;1.2373;1.6979;
48.9000;1.2381;1.7004;
49.2000;1.2422;1.7127;
49.5000;1.2389;1.7152;
49.8000;1.2365;1.7201;
50.1000;1.2381;1.7226;
50.4000;1.2389;1.7226;
50.7000;1.2381;1.7078;
51.0000;1.2389;1.7029;
51.3000;1.2414;1.7201;
51.6000;1.2389;1.7201;
51.9000;1.2389;1.7226;
52.2000;1.2389;1.7201;
52.5000;1.2389;1.7127;
52.8000;1.2405;1.7152;
53.1000;1.2389;1.7127;
53.4000;1.2422;1.7226;
53.7000;1.2414;1.7324;
54.0000;1.2397;1.7373;
54.3000;1.2414;1.7398;
54.6000;1.2389;1.7299;
54.9000;1.2430;1.7373;
55.2000;1.2397;1.7299;
55.5000;1.2365;1.7176;
55.8000;1.2479;1.7373;
56.1000;1.2397;1.7152;
56.4000;1.2373;1.7102;
56.7000;1.2397;1.7127;
57.0000;1.2381;1.7053;
57.3000;1.2397;1.7152;
57.6000;1.2405;1.7152;
57.9000;1.2365;1.7053;
58.2000;1.2397;1.7127;
58.5000;1.2405;1.7176;
58.8000;1.2397;1.7176;
59.1000;1.2389;1.7176;
59.4000;1.2397;1.7201;
59.7000;1.2414;1.7226;
60.0000;1.2405;1.7226;
60.3000;1.2397;1.7299;
60.6000;1.2397;1.7349;
60.9000;1.2405;1.7250;
61.2000;1.2389;1.7275;
61.5000;1.2389;1.7226;
61.8000;1.2438;1.7299;
62.1000;1.2389;1.7201;
62.4000;1.2405;1.7201;
62.7000;1.2405;1.7250;
63.0000;1.2397;1.7176;
63.3000;1.2422;1.7152;
63.6000;1.2397;1.7127;
63.9000;1.2422;1.7201;
64.2000;1.2397;1.7127;
64.5000;1.2397;1.7152;
64.8000;1.2414;1.7226;
65.1000;1.2389;1.7250;
65.4000;1.2381;1.7176;
65.7000;1.2405;1.7201;
66.0000;1.2397;1.7250;
66.3000;1.2397;1.7176;
66.6000;1.2381;1.7176;
66.9000;1.2414;1.7275;
67.2000;1.2397;1.7226;
67.5000;1.2397;1.7226;
67.8000;1.2389;1.7250;
68.1000;1.2389;1.7349;
68.4000;1.2438;1.7373;
68.7000;1.2405;1.7250;
69.0000;1.2414;1.7201;
69.3000;1.2405;1.7201;
69.6000;1.2405;1.7201;
69.9000;1.2414;1.7250;
70.2000;1.2405;1.7250;
70.5000;1.2389;1.7201;
70.8000;1.2405;1.7299;
71.1000;1.2422;1.7398;
71.4000;1.2414;1.7373;
71.7000;1.2397;1.7447;
72.0000;1.2389;1.7398;
72.3000;1.2405;1.7472;
72.6000;1.2405;1.7496;
72.9000;1.2373;1.7472;
73.2000;1.2389;1.7472;
73.5000;1.2348;1.7398;
73.8000;1.2405;1.7595;
74.1000;1.2389;1.7545;
74.4000;1.2414;1.7472;
74.7000;1.2405;1.7422;
75.0000;1.2397;1.7324;
75.3000;1.2405;1.7324;
75.6000;1.2397;1.7349;
75.9000;1.2430;1.7349;
76.2000;1.2446;1.7398;
76.5000;1.2381;1.7299;
76.8000;1.2414;1.7447;
77.1000;1.2405;1.7521;
77.4000;1.2405;1.7496;
77.7000;1.2397;1.7422;
78.0000;1.2454;1.7521;
78.3000;1.2414;1.7472;
78.6000;1.2414;1.7472;
78.9000;1.2389;1.7373;
79.2000;1.2422;1.7398;
79.5000;1.2397;1.7299;
79.8000;1.2405;1.7349;
80.1000;1.2414;1.7299;
80.4000;1.2389;1.7299;
80.7000;1.2389;1.7324;
81.0000;1.2397;1.7299;
81.3000;1.2405;1.7373;
81.6000;1.2405;1.7324;
81.9000;1.2381;1.7250;
82.2000;1.2397;1.7250;
82.5000;1.2405;1.7299;
82.8000;1.2397;1.7275;
83.1000;1.2405;1.7226;
83.4000;1.2389;1.7275;
83.7000;1.2405;1.7447;
84.0000;1.2373;1.7275;
84.3000;1.2381;1.7299;
84.6000;1.2446;1.7422;
84.9000;1.2422;1.7250;
85.2000;1.2405;1.7176;
85.5000;1.2422;1.7176;
85.8000;1.2422;1.7127;
86.1000;1.2405;1.7152;
86.4000;1.2422;1.7275;
86.7000;1.2438;1.7398;
87.0000;1.2357;1.7250;
87.3000;1.2405;1.7250;
87.6000;1.2430;1.7299;
87.9000;1.2397;1.7201;
88.2000;1.2373;1.7127;
88.5000;1.2414;1.7102;
88.8000;1.2470;1.7275;
89.1000;1.2511;1.7324;
89.4000;1.2430;1.7176;
89.7000;1.2454;1.7299;
90.0000;1.2422;1.7226;
90.3000;1.2414;1.7250;
90.6000;1.2405;1.7226;
90.9000;1.2454;1.7324;
91.2000;1.2414;1.7349;
91.5000;1.2462;1.7398;
91.8000;1.2422;1.7324;
92.1000;1.2414;1.7324;
92.4000;1.2324;1.7201;
92.7000;1.2397;1.7226;
93.0000;1.2438;1.7324;
93.3000;1.2430;1.7275;
93.6000;1.2438;1.7250;
93.9000;1.2430;1.7201;
94.2000;1.2422;1.7176;
94.5000;1.2422;1.7201;
94.8000;1.2365;1.7078;
95.1000;1.2389;1.7152;
95.4000;1.2430;1.7176;
95.7000;1.2389;1.7053;
96.0000;1.2430;1.7102;
96.3000;1.2422;1.7127;
96.6000;1.2422;1.7226;
96.9000;1.2422;1.7201;
97.2000;1.2405;1.7176;
97.5000;1.2389;1.7127;
97.8000;1.2389;1.7127;
98.1000;1.2381;1.7102;
98.4000;1.2430;1.7275;
98.7000;1.2414;1.7275;
99.0000;1.2470;1.7472;
99.3000;1.2405;1.7349;
99.6000;1.2430;1.7349;
99.9000;1.2438;1.7324;
100.2000;1.2397;1.7275;
100.5000;1.2405;1.7275;
100.8000;1.2462;1.7398;
101.1000;1.2389;1.7299;
101.4000;1.2405;1.7373;
101.7000;1.2414;1.7349;
102.0000;1.2438;1.7349;
102.3000;1.2414;1.7349;
102.6000;1.2422;1.7398;
102.9000;1.2422;1.7398;
103.2000;1.2414;1.7398;
103.5000;1.2422;1.7472;
103.8000;1.2430;1.7472;
104.1000;1.2389;1.7398;
104.4000;1.2405;1.7422;
104.7000;1.2397;1.7373;
105.0000;1.2389;1.7398;
105.3000;1.2405;1.7472;
105.6000;1.2414;1.7398;
105.9000;1.2422;1.7324;
106.2000;1.2414;1.7349;
106.5000;1.2405;1.7324;
106.8000;1.2414;1.7299;
107.1000;1.2405;1.7299;
107.4000;1.2422;1.7299;
107.7000;1.2405;1.7275;
108.0000;1.2422;1.7299;
108.3000;1.2414;1.7299;
108.6000;1.2381;1.7324;
108.9000;1.2381;1.7324;
109.2000;1.2373;1.7226;
109.5000;1.2519;1.7668;
109.8000;1.2397;1.7373;
110.1000;1.2357;1.7299;
110.4000;1.2397;1.7496;
110.7000;1.2422;1.7521;
111.0000;1.2495;1.7595;
111.3000;1.2405;1.7472;
111.6000;1.2381;1.7422;
111.9000;1.2397;1.7447;
112.2000;1.2397;1.7422;
112.5000;1.2430;1.7447;
112.8000;1.2405;1.7299;
113.1000;1.2373;1.7201;
113.4000;1.2389;1.7349;
113.7000;1.2373;1.7324;
114.0000;1.2430;1.7422;
114.3000;1.2405;1.7324;
114.6000;1.2389;1.7299;
114.9000;1.2405;1.7250;
115.2000;1.2405;1.7176;
115.5000;1.2397;1.7152;
115.8000;1.2414;1.7299;
116.1000;1.2414;1.7324;
116.4000;1.2422;1.7275;
116.7000;1.2470;1.7472;
117.0000;1.2454;1.7398;
117.3000;1.2446;1.7447;
117.6000;1.2430;1.7398;
117.9000;1.2397;1.7349;
118.2000;1.2405;1.7324;
118.5000;1.2373;1.7226;
118.8000;1.2389;1.7324;
119.1000;1.2389;1.7275;
119.4000;1.2381;1.7299;
119.7000;1.2422;1.7349;
120.0000;1.2405;1.7349;
120.3000;1.2422;1.7299;
120.6000;1.2389;1.7299;
120.9000;1.2422;1.7373;
121.2000;1.2430;1.7398;
121.5000;1.2397;1.7373;
121.8000;1.2397;1.7545;
122.1000;1.2414;1.7570;
122.4000;1.2414;1.7521;
122.7000;1.2422;1.7545;
123.0000;1.2422;1.7619;
123.3000;1.2405;1.7496;
123.6000;1.2397;1.7447;
123.9000;1.2422;1.7422;
124.2000;1.2422;1.7447;
124.5000;1.2397;1.7422;
124.8000;1.2397;1.7398;
125.1000;1.2405;1.7349;
125.4000;1.2389;1.7250;
125.7000;1.2397;1.7226;
126.0000;1.2430;1.7299;
126.3000;1.2389;1.7201;
126.6000;1.2405;1.7275;
126.9000;1.2405;1.7373;
127.2000;1.2414;1.7447;
127.5000;1.2414;1.7373;
127.8000;1.2414;1.7324;
128.1000;1.2405;1.7226;
128.4000;1.2381;1.7053;
128.7000;1.2422;1.7029;
129.0000;1.2414;1.7053;
129.3000;1.2414;1.7053;
129.6000;1.2422;1.7127;
129.9000;1.2405;1.7053;
130.2000;1.2446;1.7152;
130.5000;1.2430;1.7250;
130.8000;1.2414;1.7275;
131.1000;1.2422;1.7275;
131.4000;1.2405;1.7299;
131.7000;1.2405;1.7176;
132.0000;1.2405;1.7250;
132.3000;1.2405;1.7275;
132.6000;1.2365;1.7226;
132.9000;1.2389;1.7299;
133.2000;1.2405;1.7398;
133.5000;1.2373;1.7275;
133.8000;1.2389;1.7250;
134.1000;1.2389;1.7152;
134.4000;1.2389;1.7127;
134.7000;1.2454;1.7226;
135.0000;1.2414;1.7078;
135.3000;1.2422;1.7102;
135.6000;1.2414;1.7029;
135.9000;1.2422;1.7078;
136.2000;1.2422;1.7250;
136.5000;1.2446;1.7299;
136.8000;1.2438;1.7127;
137.1000;1.2414;1.7152;
137.4000;1.2405;1.7078;
137.7000;1.2414;1.7127;
138.0000;1.2430;1.7176;
138.3000;1.2470;1.7299;
138.6000;1.2291;1.6832;
138.9000;1.2405;1.7127;
139.2000;1.2397;1.7176;
139.5000;1.2397;1.7201;
139.8000;1.2405;1.7201;
140.1000;1.2414;1.7324;
140.4000;1.2414;1.7349;
140.7000;1.2405;1.7349;
141.0000;1.2405;1.7275;
141.3000;1.2397;1.7275;
141.6000;1.2405;1.7324;
141.9000;1.2422;1.7299;
142.2000;1.2414;1.7226;
142.5000;1.2397;1.7201;
142.8000;1.2381;1.7226;
143.1000;1.2414;1.7373;
143.4000;1.2430;1.7472;
143.7000;1.2470;1.7545;
144.0000;1.2389;1.7349;
144.3000;1.2405;1.7349;
144.6000;1.2414;1.7275;
144.9000;1.2405;1.7226;
145.2000;1.2414;1.7275;
145.5000;1.2422;1.7226;
145.8000;1.2430;1.7250;
146.1000;1.2405;1.7275;
146.4000;1.2397;1.7349;
146.7000;1.2414;1.7422;
147.0000;1.2430;1.7545;
147.3000;1.2414;1.7545;
147.6000;1.2389;1.7472;
147.9000;1.2405;1.7496;
148.2000;1.2414;1.7521;
148.5000;1.2389;1.7398;
148.8000;1.2414;1.7472;
149.1000;1.2422;1.7619;
149.4000;1.2422;1.7595;
149.7000;1.2414;1.7521;
150.0000;1.2405;1.7422;
150.3000;1.2373;1.7275;
150.6000;1.2405;1.7299;
150.9000;1.2446;1.7447;
151.2000;1.2405;1.7299;
151.5000;1.2470;1.7545;
151.8000;1.2381;1.7250;
152.1000;1.2462;1.7349;
152.4000;1.2414;1.7275;
152.7000;1.2405;1.7349;
153.0000;1.2414;1.7373;
153.3000;1.2422;1.7398;
153.6000;1.2414;1.7373;
153.9000;1.2430;1.7398;
154.2000;1.2405;1.7349;
154.5000;1.2405;1.7373;
154.8000;1.2405;1.7299;
155.1000;1.2397;1.7324;
155.4000;1.2414;1.7349;
155.7000;1.2389;1.7324;
156.0000;1.2397;1.7373;
156.3000;1.2381;1.7373;
156.6000;1.2389;1.7349;
156.9000;1.2397;1.7324;
157.2000;1.2405;1.7299;
157.5000;1.2405;1.7373;
157.8000;1.2373;1.7226;
158.1000;1.2373;1.7250;
158.4000;1.2414;1.7275;
158.7000;1.2414;1.7127;
159.0000;1.2397;1.7176;
159.3000;1.2405;1.7176;
159.6000;1.2438;1.7226;
159.9000;1.2405;1.7176;
160.2000;1.2397;1.7176;
160.5000;1.2405;1.7226;
160.8000;1.2422;1.7201;
161.1000;1.2422;1.7250;
161.4000;1.2414;1.7226;
161.7000;1.2389;1.7176;
162.0000;1.2414;1.7226;
162.3000;1.2414;1.7349;
162.6000;1.2414;1.7373;
162.9000;1.2414;1.7472;
163.2000;1.2414;1.7521;
163.5000;1.2414;1.7496;
163.8000;1.2422;1.7447;
164.1000;1.2414;1.7422;
164.4000;1.2405;1.7398;
164.7000;1.2405;1.7373;
165.0000;1.2405;1.7275;
165.3000;1.2397;1.7373;
165.6000;1.2405;1.7324;
165.9000;1.2373;1.7226;
166.2000;1.2414;1.7275;
166.5000;1.2405;1.7324;
166.8000;1.2365;1.7127;
167.1000;1.2397;1.7275;
167.4000;1.2405;1.7299;
167.7000;1.2414;1.7324;
168.0000;1.2422;1.7299;
168.3000;1.2430;1.7398;
168.6000;1.2414;1.7299;
168.9000;1.2405;1.7373;
169.2000;1.2373;1.7324;
169.5000;1.2414;1.7349;
169.8000;1.2405;1.7373;
170.1000;1.2405;1.7299;
170.4000;1.2430;1.7324;
170.7000;1.2405;1.7299;
171.0000;1.2389;1.7349;
171.3000;1.2454;1.7447;
171.6000;1.2405;1.7373;
171.9000;1.2389;1.7349;
172.2000;1.2381;1.7373;
172.5000;1.2438;1.7472;
172.8000;1.2405;1.7472;
173.1000;1.2381;1.7447;
173.4000;1.2381;1.7422;
173.7000;1.2357;1.7373;
174.0000;1.2389;1.7447;
174.3000;1.2365;1.7422;
174.6000;1.2430;1.7570;
174.9000;1.2405;1.7472;
175.2000;1.2405;1.7496;
175.5000;1.2479;1.7570;
175.8000;1.2389;1.7373;
176.1000;1.2397;1.7324;
176.4000;1.2405;1.7275;
176.7000;1.2414;1.7349;
177.0000;1.2373;1.7250;
177.3000;1.2373;1.7250;
177.6000;1.2389;1.7275;
177.9000;1.2348;1.7152;
178.2000;1.2405;1.7250;
178.5000;1.2389;1.7201;
178.8000;1.2397;1.7226;
179.1000;1.2405;1.7299;
179.4000;1.2397;1.7349;
179.7000;1.2397;1.7324;
180.0000;1.2462;1.7521;
180.3000;1.2414;1.7472;
180.6000;1.2405;1.7521;
180.9000;1.2414;1.7545;
181.2000;1.2397;1.7521;
181.5000;1.2414;1.7521;
181.8000;1.2389;1.7521;
182.1000;1.2397;1.7521;
182.4000;1.2381;1.7422;
182.7000;1.2397;1.7472;
183.0000;1.2373;1.7373;
183.3000;1.2389;1.7447;
183.6000;1.2381;1.7545;
183.9000;1.2405;1.7521;
184.2000;1.2397;1.7447;
184.5000;1.2389;1.7422;
184.8000;1.2373;1.7349;
185.1000;1.2397;1.7324;
185.4000;1.2405;1.7349;
185.7000;1.2405;1.7398;
186.0000;1.2414;1.7398;
186.3000;1.2405;1.7422;
186.6000;1.2405;1.7299;
186.9000;1.2462;1.7447;
187.2000;1.2397;1.7349;
187.5000;1.2397;1.7299;
187.8000;1.2430;1.7447;
188.1000;1.2430;1.7398;
188.4000;1.2397;1.7299;
188.7000;1.2357;1.7226;
189.0000;1.2381;1.7349;
189.3000;1.2405;1.7447;
189.6000;1.2405;1.7447;
189.9000;1.2389;1.7373;
190.2000;1.2381;1.7324;
190.5000;1.2405;1.7422;
190.8000;1.2397;1.7373;
191.1000;1.2397;1.7373;
191.4000;1.2397;1.7299;
191.7000;1.2397;1.7349;
192.0000;1.2389;1.7226;
192.3000;1.2348;1.7176;
192.6000;1.2381;1.7250;
192.9000;1.2381;1.7250;
193.2000;1.2397;1.7275;
193.5000;1.2381;1.7275;
193.8000;1.2430;1.7349;
194.1000;1.2389;1.7299;
194.4000;1.2397;1.7250;
194.7000;1.2389;1.7201;
195.0000;1.2373;1.7250;
195.3000;1.2397;1.7373;
195.6000;1.2405;1.7398;
195.9000;1.2381;1.7324;
196.2000;1.2397;1.7324;
196.5000;1.2389;1.7398;
196.8000;1.2397;1.7447;
197.1000;1.2373;1.7422;
197.4000;1.2381;1.7447;
197.7000;1.2381;1.7422;
198.0000;1.2397;1.7349;
198.3000;1.2389;1.7275;
198.6000;1.2381;1.7299;
198.9000;1.2397;1.7275;
199.2000;1.2389;1.7176;
199.5000;1.2405;1.7250;
199.8000;1.2397;1.7275;
200.1000;1.2389;1.7226;
200.4000;1.2389;1.7275;
200.7000;1.2397;1.7324;
201.0000;1.2381;1.7422;
201.3000;1.2430;1.7570;
201.6000;1.2389;1.7447;
201.9000;1.2397;1.7545;
202.2000;1.2397;1.7545;
202.5000;1.2381;1.7472;
202.8000;1.2348;1.7250;
203.1000;1.2389;1.7299;
203.4000;1.2389;1.7299;
203.7000;1.2373;1.7398;
204.0000;1.2381;1.7373;
204.3000;1.2373;1.7373;
204.6000;1.2405;1.7422;
204.9000;1.2389;1.7422;
205.2000;1.2397;1.7447;
205.5000;1.2389;1.7447;
205.8000;1.2405;1.7496;
206.1000;1.2389;1.7472;
206.4000;1.2405;1.7422;
206.7000;1.2373;1.7349;
207.0000;1.2389;1.7398;
207.3000;1.2397;1.7472;
207.6000;1.2381;1.7521;
207.9000;1.2397;1.7521;
208.2000;1.2397;1.7496;
208.5000;1.2405;1.7496;
208.8000;1.2389;1.7422;
209.1000;1.2397;1.7447;
209.4000;1.2381;1.7422;
209.7000;1.2381;1.7373;
210.0000;1.2405;1.7472;
210.3000;1.2430;1.7521;
210.6000;1.2389;1.7447;
210.9000;1.2430;1.7496;
211.2000;1.2397;1.7373;
211.5000;1.2397;1.7373;
211.8000;1.2381;1.7422;
212.1000;1.2397;1.7422;
212.4000;1.2397;1.7422;
212.7000;1.2405;1.7447;
213.0000;1.2381;1.7349;
213.3000;1.2397;1.7398;
213.6000;1.2405;1.7398;
213.9000;1.2389;1.7398;
214.2000;1.2389;1.7496;
214.5000;1.2381;1.7472;
214.8000;1.2397;1.7521;
215.1000;1.2381;1.7496;
215.4000;1.2381;1.7521;
215.7000;1.2381;1.7496;
216.0000;1.2430;1.7521;
216.3000;1.2397;1.7472;
216.6000;1.2405;1.7472;
216.9000;1.2405;1.7472;
217.2000;1.2381;1.7398;
217.5000;1.2389;1.7373;
217.8000;1.2373;1.7324;
218.1000;1.2381;1.7299;
218.4000;1.2397;1.7275;
218.7000;1.2397;1.7299;
219.0000;1.2389;1.7373;
219.3000;1.2389;1.7349;
219.6000;1.2381;1.7373;
219.9000;1.2332;1.7250;
220.2000;1.2389;1.7373;
220.5000;1.2381;1.7349;
220.8000;1.2381;1.7422;
221.1000;1.2389;1.7447;
221.4000;1.2414;1.7496;
221.7000;1.2332;1.7324;
222.0000;1.2365;1.7398;
222.3000;1.2381;1.7422;
222.6000;1.2389;1.7447;
222.9000;1.2389;1.7422;
223.2000;1.2381;1.7422;
223.5000;1.2381;1.7447;
223.8000;1.2373;1.7447;
224.1000;1.2397;1.7496;
224.4000;1.2373;1.7521;
224.7000;1.2357;1.7447;
225.0000;1.2381;1.7447;
225.3000;1.2389;1.7422;
225.6000;1.2405;1.7447;
225.9000;1.2381;1.7398;
226.2000;1.2446;1.7570;
226.5000;1.2389;1.7422;
226.8000;1.2308;1.7226;
227.1000;1.2357;1.7373;
227.4000;1.2389;1.7545;
227.7000;1.2283;1.7299;
228.0000;1.2381;1.7545;
228.3000;1.2389;1.7496;
228.6000;1.2405;1.7496;
228.9000;1.2414;1.7422;
229.2000;1.2414;1.7447;
229.5000;1.2397;1.7447;
229.8000;1.2389;1.7472;
230.1000;1.2389;1.7619;
230.4000;1.2422;1.7619;
230.7000;1.2389;1.7545;
231.0000;1.2397;1.7545;
231.3000;1.2397;1.7570;
231.6000;1.2397;1.7472;
231.9000;1.2397;1.7447;
232.2000;1.2405;1.7422;
232.5000;1.2291;1.7053;
232.8000;1.2405;1.7324;
233.1000;1.2414;1.7324;
233.4000;1.2397;1.7275;
233.7000;1.2389;1.7324;
234.0000;1.2405;1.7422;
234.3000;1.2414;1.7447;
234.6000;1.2405;1.7496;
234.9000;1.2365;1.7496;
235.2000;1.2381;1.7521;
235.5000;1.2389;1.7595;
235.8000;1.2389;1.7595;
236.1000;1.2389;1.7472;
236.4000;1.2397;1.7521;
236.7000;1.2389;1.7521;
237.0000;1.2397;1.7545;
237.3000;1.2373;1.7521;
237.6000;1.2381;1.7619;
237.9000;1.2414;1.7619;
238.2000;1.2438;1.7742;
238.5000;1.2389;1.7693;
238.8000;1.2381;1.7595;
239.1000;1.2389;1.7570;
239.4000;1.2389;1.7595;
239.7000;1.2373;1.7521;
240.0000;1.2373;1.7496;
240.3000;1.2373;1.7496;
240.6000;1.2381;1.7545;
240.9000;1.2397;1.7545;
241.2000;1.2373;1.7472;
241.5000;1.2373;1.7447;
241.8000;1.2389;1.7447;
242.1000;1.2381;1.7422;
242.4000;1.2365;1.7373;
242.7000;1.2397;1.7472;
243.0000;1.2397;1.7496;
243.3000;1.2397;1.7595;
243.6000;1.2397;1.7496;
243.9000;1.2405;1.7545;
244.2000;1.2397;1.7521;
244.5000;1.2365;1.7373;
244.8000;1.2405;1.7422;
245.1000;1.2397;1.7447;
245.4000;1.2389;1.7570;
245.7000;1.2414;1.7521;
246.0000;1.2405;1.7447;
246.3000;1.2373;1.7398;
246.6000;1.2373;1.7422;
246.9000;1.2373;1.7496;
247.2000;1.2389;1.7521;
247.5000;1.2405;1.7447;
247.8000;1.2324;1.7250;
248.1000;1.2381;1.7496;
248.4000;1.2414;1.7496;
248.7000;1.2470;1.7619;
249.0000;1.2389;1.7521;
249.3000;1.2397;1.7521;
249.6000;1.2397;1.7398;
249.9000;1.2381;1.7349;
250.2000;1.2389;1.7447;
250.5000;1.2397;1.7349;
250.8000;1.2381;1.7299;
251.1000;1.2340;1.7201;
251.4000;1.2389;1.7349;
251.7000;1.2381;1.7324;
252.0000;1.2389;1.7398;
252.3000;1.2422;1.7447;
252.6000;1.2389;1.7496;
252.9000;1.2389;1.7545;
253.2000;1.2397;1.7447;
253.5000;1.2397;1.7545;
253.8000;1.2389;1.7447;
254.1000;1.2381;1.7545;
254.4000;1.2389;1.7521;
254.7000;1.2373;1.7422;
255.0000;1.2438;1.7521;
255.3000;1.2397;1.7299;
255.6000;1.2324;1.7078;
255.9000;1.2405;1.7226;
256.2000;1.2397;1.7275;
256.5000;1.2397;1.7299;
256.8000;1.2381;1.7275;
257.1000;1.2422;1.7447;
257.4000;1.2389;1.7299;
257.7000;1.2405;1.7324;
258.0000;1.2381;1.7250;
258.3000;1.2397;1.7201;
258.6000;1.2373;1.7176;
258.9000;1.2365;1.7152;
259.2000;1.2381;1.7152;
259.5000;1.2397;1.7250;
259.8000;1.2405;1.7299;
260.1000;1.2381;1.7299;
260.4000;1.2373;1.7422;
260.7000;1.2381;1.7422;
261.0000;1.2405;1.7570;
261.3000;1.2373;1.7422;
261.6000;1.2381;1.7398;
261.9000;1.2479;1.7693;
262.2000;1.2373;1.7398;
262.5000;1.2397;1.7398;
262.8000;1.2357;1.7373;
263.1000;1.2381;1.7398;
263.4000;1.2381;1.7349;
263.7000;1.2389;1.7398;
264.0000;1.2454;1.7570;
264.3000;1.2381;1.7422;
264.6000;1.2373;1.7373;
264.9000;1.2381;1.7349;
265.2000;1.2397;1.7373;
265.5000;1.2348;1.7324;
265.8000;1.2381;1.7349;
266.1000;1.2381;1.7299;
266.4000;1.2389;1.7398;
266.7000;1.2357;1.7349;
267.0000;1.2397;1.7472;
267.3000;1.2381;1.7398;
267.6000;1.2438;1.7472;
267.9000;1.2405;1.7324;
268.2000;1.2389;1.7324;
268.5000;1.2308;1.7029;
268.8000;1.2397;1.7176;
269.1000;1.2381;1.7152;
269.4000;1.2397;1.7102;
269.7000;1.2397;1.7127;
270.0000;1.2405;1.7201;
270.3000;1.2397;1.7201;
270.6000;1.2430;1.7299;
270.9000;1.2397;1.7324;
271.2000;1.2373;1.7324;
271.5000;1.2389;1.7398;
271.8000;1.2405;1.7422;
272.1000;1.2381;1.7349;
272.4000;1.2389;1.7422;
272.7000;1.2397;1.7447;
273.0000;1.2381;1.7472;
273.3000;1.2381;1.7472;
273.6000;1.2381;1.7521;
273.9000;1.2405;1.7595;
274.2000;1.2373;1.7545;
274.5000;1.2381;1.7496;
274.8000;1.2470;1.7693;
275.1000;1.2389;1.7422;
275.4000;1.2397;1.7373;
275.7000;1.2389;1.7373;
276.0000;1.2357;1.7324;
276.3000;1.2373;1.7373;
276.6000;1.2381;1.7472;
276.9000;1.2373;1.7398;
277.2000;1.2373;1.7373;
277.5000;1.2381;1.7398;
277.8000;1.2397;1.7398;
278.1000;1.2381;1.7422;
278.4000;1.2357;1.7275;
278.7000;1.2381;1.7373;
279.0000;1.2381;1.7299;
279.3000;1.2373;1.7250;
279.6000;1.2389;1.7275;
279.9000;1.2397;1.7373;
280.2000;1.2381;1.7324;
280.5000;1.2373;1.7349;
280.8000;1.2373;1.7324;
281.1000;1.2389;1.7349;
281.4000;1.2389;1.7373;
281.7000;1.2389;1.7324;
282.0000;1.2373;1.7226;
282.3000;1.2381;1.7299;
282.6000;1.2397;1.7275;
282.9000;1.2414;1.7349;
283.2000;1.2365;1.7299;
283.5000;1.2389;1.7398;
283.8000;1.2454;1.7545;
284.1000;1.2373;1.7250;
284.4000;1.2381;1.7275;
284.7000;1.2381;1.7349;
285.0000;1.2381;1.7422;
285.3000;1.2389;1.7422;
285.6000;1.2389;1.7349;
285.9000;1.2389;1.7324;
286.2000;1.2373;1.7324;
286.5000;1.2397;1.7472;
286.8000;1.2389;1.7447;
287.1000;1.2389;1.7422;
287.4000;1.2381;1.7472;
287.7000;1.2389;1.7472;
288.0000;1.2389;1.7496;
288.3000;1.2414;1.7496;
288.6000;1.2381;1.7422;
288.9000;1.2300;1.7201;
289.2000;1.2397;1.7398;
289.5000;1.2332;1.7250;
289.8000;1.2365;1.7373;
290.1000;1.2373;1.7275;
290.4000;1.2381;1.7398;
290.7000;1.2381;1.7398;
291.0000;1.2381;1.7324;
291.3000;1.2348;1.7250;
291.6000;1.2373;1.7373;
291.9000;1.2389;1.7373;
292.2000;1.2373;1.7349;
292.5000;1.2397;1.7422;
292.8000;1.2381;1.7447;
293.1000;1.2381;1.7496;
293.4000;1.2365;1.7496;
293.7000;1.2373;1.7472;
294.0000;1.2373;1.7496;
294.3000;1.2381;1.7570;
294.6000;1.2446;1.7742;
294.9000;1.2373;1.7570;
295.2000;1.2381;1.7496;
295.5000;1.2300;1.7250;
295.8000;1.2300;1.7299;
296.1000;1.2397;1.7496;
296.4000;1.2381;1.7472;
296.7000;1.2357;1.7324;
297.0000;1.2373;1.7299;
297.3000;1.2365;1.7226;
297.6000;1.2389;1.7373;
297.9000;1.2357;1.7447;
298.2000;1.2373;1.7472;
298.5000;1.2381;1.7447;
298.8000;1.2373;1.7447;
299.1000;1.2381;1.7472;
299.4000;1.2381;1.7422;
299.7000;1.2389;1.7398;
300.0000;1.2479;1.7718;
300.3000;1.2365;1.7521;
300.6000;1.2373;1.7619;
300.9000;1.2373;1.7693;
301.2000;1.2381;1.7644;
301.5000;1.2357;1.7644;
301.8000;1.2365;1.7644;
302.1000;1.2381;1.7595;
302.4000;1.2340;1.7545;
302.7000;1.2324;1.7472;
303.0000;1.2324;1.7422;
303.3000;1.2373;1.7644;
303.6000;1.2389;1.7718;
303.9000;1.2365;1.7644;
304.2000;1.2373;1.7644;
304.5000;1.2373;1.7693;
304.8000;1.2332;1.7619;
305.1000;1.2389;1.7619;
305.4000;1.2381;1.7545;
305.7000;1.2365;1.7595;
306.0000;1.2300;1.7447;
306.3000;1.2373;1.7718;
306.6000;1.2381;1.7718;
306.9000;1.2365;1.7595;
307.2000;1.2373;1.7545;
307.5000;1.2357;1.7496;
307.8000;1.2340;1.7447;
308.1000;1.2357;1.7545;
308.4000;1.2373;1.7545;
308.7000;1.2365;1.7545;
309.0000;1.2365;1.7496;
309.3000;1.2357;1.7472;
309.6000;1.2373;1.7472;
309.9000;1.2373;1.7545;
310.2000;1.2373;1.7472;
310.5000;1.2365;1.7398;
310.8000;1.2373;1.7349;
311.1000;1.2381;1.7349;
311.4000;1.2381;1.7349;
311.7000;1.2365;1.7398;
312.0000;1.2373;1.7422;
312.3000;1.2373;1.7324;
312.6000;1.2381;1.7275;
312.9000;1.2381;1.7226;
313.2000;1.2397;1.7349;
313.5000;1.2324;1.7201;
313.8000;1.2381;1.7299;
314.1000;1.2365;1.7226;
314.4000;1.2332;1.7078;
314.7000;1.2373;1.7250;
315.0000;1.2422;1.7373;
315.3000;1.2373;1.7275;
315.6000;1.2365;1.7299;
315.9000;1.2422;1.7472;
316.2000;1.2381;1.7250;
316.5000;1.2365;1.7275;
316.8000;1.2348;1.7201;
317.1000;1.2332;1.7102;
317.4000;1.2381;1.7176;
317.7000;1.2397;1.7299;
318.0000;1.2357;1.7324;
318.3000;1.2357;1.7275;
318.6000;1.2357;1.7324;
318.9000;1.2389;1.7349;
319.2000;1.2389;1.7324;
319.5000;1.2373;1.7250;
319.8000;1.2373;1.7324;
320.1000;1.2414;1.7447;
320.4000;1.2357;1.7349;
320.7000;1.2340;1.7373;
321.0000;1.2340;1.7447;
321.3000;1.2373;1.7422;
321.6000;1.2373;1.7472;
321.9000;1.2373;1.7472;
322.2000;1.2438;1.7668;
322.5000;1.2373;1.7472;
322.8000;1.2357;1.7447;
323.1000;1.2381;1.7496;
323.4000;1.2340;1.7496;
323.7000;1.2365;1.7496;
324.0000;1.2381;1.7496;
324.3000;1.2365;1.7422;
324.6000;1.2357;1.7422;
324.9000;1.2373;1.7496;
325.2000;1.2365;1.7521;
325.5000;1.2446;1.7644;
325.8000;1.2348;1.7521;
326.1000;1.2373;1.7693;
326.4000;1.2365;1.7644;
326.7000;1.2405;1.7718;
327.0000;1.2422;1.7668;
327.3000;1.2373;1.7496;
327.6000;1.2332;1.7398;
327.9000;1.2332;1.7373;
328.2000;1.2381;1.7521;
328.5000;1.2365;1.7545;
328.8000;1.2422;1.7570;
329.1000;1.2373;1.7398;
329.4000;1.2389;1.7398;
329.7000;1.2381;1.7398;
330.0000;1.2373;1.7422;
330.3000;1.2373;1.7496;
330.6000;1.2389;1.7595;
330.9000;1.2365;1.7570;
331.2000;1.2365;1.7521;
331.5000;1.2357;1.7545;
331.8000;1.2373;1.7595;
332.1000;1.2357;1.7521;
332.4000;1.2373;1.7545;
332.7000;1.2357;1.7521;
333.0000;1.2373;1.7521;
333.3000;1.2373;1.7496;
333.6000;1.2381;1.7521;
333.9000;1.2365;1.7472;
334.2000;1.2381;1.7496;
334.5000;1.2365;1.7422;
334.8000;1.2365;1.7447;
335.1000;1.2357;1.7472;
335.4000;1.2348;1.7447;
335.7000;1.2365;1.7521;
336.0000;1.2365;1.7472;
336.3000;1.2357;1.7373;
336.6000;1.2340;1.7349;
336.9000;1.2340;1.7398;
337.2000;1.2373;1.7447;
337.5000;1.2373;1.7398;
337.8000;1.2381;1.7447;
338.1000;1.2365;1.7447;
338.4000;1.2365;1.7422;
338.7000;1.2373;1.7521;
339.0000;1.2373;1.7545;
339.3000;1.2373;1.7595;
339.6000;1.2300;1.7373;
339.9000;1.2365;1.7496;
340.2000;1.2365;1.7422;
340.5000;1.2397;1.7472;
340.8000;1.2365;1.7398;
341.1000;1.2373;1.7422;
341.4000;1.2365;1.7349;
341.7000;1.2373;1.7299;
342.0000;1.2373;1.7299;
342.3000;1.2373;1.7299;
342.6000;1.2300;1.7102;
342.9000;1.2340;1.7201;
343.2000;1.2365;1.7275;
343.5000;1.2381;1.7275;
343.8000;1.2422;1.7373;
344.1000;1.2300;1.6979;
344.4000;1.2365;1.7152;
344.7000;1.2348;1.7127;
345.0000;1.2357;1.7226;
345.3000;1.2405;1.7422;
345.6000;1.2381;1.7299;
345.9000;1.2381;1.7324;
346.2000;1.2365;1.7324;
346.5000;1.2357;1.7201;
346.8000;1.2357;1.7201;
347.1000;1.2365;1.7275;
347.4000;1.2348;1.7299;
347.7000;1.2348;1.7250;
348.0000;1.2397;1.7398;
348.3000;1.2357;1.7299;
348.6000;1.2365;1.7324;
348.9000;1.2365;1.7299;
349.2000;1.2357;1.7250;
349.5000;1.2357;1.7201;
349.8000;1.2365;1.7299;
350.1000;1.2348;1.7324;
350.4000;1.2348;1.7349;
350.7000;1.2300;1.7250;
351.0000;1.2373;1.7422;
351.3000;1.2381;1.7447;
351.6000;1.2348;1.7398;
351.9000;1.2357;1.7422;
352.2000;1.2373;1.7422;
352.5000;1.2381;1.7422;
352.8000;1.2373;1.7398;
353.1000;1.2381;1.7472;
353.4000;1.2373;1.7472;
353.7000;1.2414;1.7472;
354.0000;1.2332;1.7324;
354.3000;1.2357;1.7373;
354.6000;1.2373;1.7373;
354.9000;1.2381;1.7349;
355.2000;1.2373;1.7422;
355.5000;1.2365;1.7373;
355.8000;1.2373;1.7299;
356.1000;1.2373;1.7324;
356.4000;1.2365;1.7472;
356.7000;1.2373;1.7373;
357.0000;1.2357;1.7373;
357.3000;1.2340;1.7398;
357.6000;1.2357;1.7398;
357.9000;1.2365;1.7398;
358.2000;1.2340;1.7422;
358.5000;1.2397;1.7570;
358.8000;1.2389;1.7422;
359.1000;1.2357;1.7398;
359.4000;1.2365;1.7373;
359.7000;1.2373;1.7422;
360.0000;1.2381;1.7398;
360.3000;1.2365;1.7373;
360.6000;1.2365;1.7349;
360.9000;1.2357;1.7275;
361.2000;1.2357;1.7299;
361.5000;1.2373;1.7275;
361.8000;1.2340;1.7324;
362.1000;1.2357;1.7324;
362.4000;1.2348;1.7226;
362.7000;1.2357;1.7349;
363.0000;1.2291;1.7201;
363.3000;1.2357;1.7324;
363.6000;1.2348;1.7275;
363.9000;1.2389;1.7324;
364.2000;1.2381;1.7472;
364.5000;1.2373;1.7496;
364.8000;1.2389;1.7472;
365.1000;1.2373;1.7447;
365.4000;1.2381;1.7398;
365.7000;1.2373;1.7447;
366.0000;1.2365;1.7447;
366.3000;1.2348;1.7545;
366.6000;1.2357;1.7521;
366.9000;1.2357;1.7521;
367.2000;1.2365;1.7472;
367.5000;1.2365;1.7496;
367.8000;1.2365;1.7545;
368.1000;1.2365;1.7545;
368.4000;1.2348;1.7496;
368.7000;1.2348;1.7422;
369.0000;1.2357;1.7545;
369.3000;1.2348;1.7545;
369.6000;1.2365;1.7472;
369.9000;1.2373;1.7545;
370.2000;1.2389;1.7570;
370.5000;1.2365;1.7521;
370.8000;1.2365;1.7472;
371.1000;1.2348;1.7324;
371.4000;1.2373;1.7299;
371.7000;1.2373;1.7299;
372.0000;1.2348;1.7226;
372.3000;1.2348;1.7176;
372.6000;1.2373;1.7201;
372.9000;1.2365;1.7201;
373.2000;1.2357;1.7299;
373.5000;1.2365;1.7398;
373.8000;1.2365;1.7398;
374.1000;1.2348;1.7275;
374.4000;1.2348;1.7250;
374.7000;1.2348;1.7275;
375.0000;1.2348;1.7373;
375.3000;1.2381;1.7545;
375.6000;1.2357;1.7570;
375.9000;1.2397;1.7718;
376.2000;1.2348;1.7545;
376.5000;1.2365;1.7472;
376.8000;1.2365;1.7422;
377.1000;1.2340;1.7299;
377.4000;1.2348;1.7422;
377.7000;1.2348;1.7472;
378.0000;1.2365;1.7447;
378.3000;1.2348;1.7496;
378.6000;1.2340;1.7521;
378.9000;1.2348;1.7595;
379.2000;1.2357;1.7545;
379.5000;1.2340;1.7545;
379.8000;1.2357;1.7619;
380.1000;1.2348;1.7570;
380.4000;1.2348;1.7595;
380.7000;1.2357;1.7619;
381.0000;1.2365;1.7570;
381.3000;1.2365;1.7472;
381.6000;1.2373;1.7521;
381.9000;1.2373;1.7644;
382.2000;1.2348;1.7644;
382.5000;1.2373;1.7644;
382.8000;1.2340;1.7521;
383.1000;1.2365;1.7545;
383.4000;1.2373;1.7545;
383.7000;1.2348;1.7521;
384.0000;1.2348;1.7570;
384.3000;1.2316;1.7595;
384.6000;1.2357;1.7668;
384.9000;1.2340;1.7545;
385.2000;1.2365;1.7472;
385.5000;1.2357;1.7422;
385.8000;1.2348;1.7422;
386.1000;1.2357;1.7349;
386.4000;1.2340;1.7324;
386.7000;1.2357;1.7275;
387.0000;1.2365;1.7324;
387.3000;1.2340;1.7349;
387.6000;1.2308;1.7250;
387.9000;1.2348;1.7324;
388.2000;1.2324;1.7299;
388.5000;1.2316;1.7324;
388.8000;1.2340;1.7349;
389.1000;1.2357;1.7373;
389.4000;1.2365;1.7447;
389.7000;1.2324;1.7299;
390.0000;1.2357;1.7373;
390.3000;1.2348;1.7398;
390.6000;1.2373;1.7472;
390.9000;1.2340;1.7422;
391.2000;1.2340;1.7373;
391.5000;1.2357;1.7422;
391.8000;1.2308;1.7250;
392.1000;1.2365;1.7398;
392.4000;1.2357;1.7422;
392.7000;1.2365;1.7299;
393.0000;1.2357;1.7275;
393.3000;1.2357;1.7398;
393.6000;1.2267;1.7226;
393.9000;1.2340;1.7521;
394.2000;1.2357;1.7545;
394.5000;1.2357;1.7521;
394.8000;1.2365;1.7496;
395.1000;1.2357;1.7545;
395.4000;1.2348;1.7595;
395.7000;1.2348;1.7521;
396.0000;1.2373;1.7570;
396.3000;1.2357;1.7496;
396.6000;1.2340;1.7521;
396.9000;1.2308;1.7275;
397.2000;1.2373;1.7349;
397.5000;1.2373;1.7398;
397.8000;1.2348;1.7447;
398.1000;1.2332;1.7422;
398.4000;1.2381;1.7496;
398.7000;1.2332;1.7472;
399.0000;1.2357;1.7545;
399.3000;1.2348;1.7496;
399.6000;1.2348;1.7570;
399.9000;1.2373;1.7545;
400.2000;1.2348;1.7496;
400.5000;1.2365;1.7521;
400.8000;1.2365;1.7570;
401.1000;1.2373;1.7619;
401.4000;1.2373;1.7595;
401.7000;1.2381;1.7619;
402.0000;1.2357;1.7668;
402.3000;1.2373;1.7644;
402.6000;1.2365;1.7718;
402.9000;1.2357;1.7619;
403.2000;1.2348;1.7619;
403.5000;1.2381;1.7644;
403.8000;1.2348;1.7521;
404.1000;1.2340;1.7521;
404.4000;1.2340;1.7472;
404.7000;1.2332;1.7422;
405.0000;1.2357;1.7422;
405.3000;1.2357;1.7545;
405.6000;1.2332;1.7472;
405.9000;1.2373;1.7521;
406.2000;1.2365;1.7545;
406.5000;1.2381;1.7545;
406.8000;1.2365;1.7570;
407.1000;1.2300;1.7373;
407.4000;1.2430;1.7668;
407.7000;1.2340;1.7545;
408.0000;1.2348;1.7619;
408.3000;1.2405;1.7742;
408.6000;1.2316;1.7545;
408.9000;1.2365;1.7619;
409.2000;1.2381;1.7619;
409.5000;1.2324;1.7373;
409.8000;1.2340;1.7299;
410.1000;1.2357;1.7349;
410.4000;1.2348;1.7349;
410.7000;1.2308;1.7250;
411.0000;1.2373;1.7324;
411.3000;1.2373;1.7398;
411.6000;1.2381;1.7398;
411.9000;1.2365;1.7324;
412.2000;1.2389;1.7349;
412.5000;1.2422;1.7422;
412.8000;1.2348;1.7373;
413.1000;1.2438;1.7595;
413.4000;1.2357;1.7398;
413.7000;1.2340;1.7398;
414.0000;1.2365;1.7373;
414.3000;1.2316;1.7250;
414.6000;1.2365;1.7422;
414.9000;1.2340;1.7398;
415.2000;1.2340;1.7398;
415.5000;1.2348;1.7447;
415.8000;1.2340;1.7472;
416.1000;1.2422;1.7644;
416.4000;1.2332;1.7447;
416.7000;1.2422;1.7644;
417.0000;1.2348;1.7472;
417.3000;1.2340;1.7398;
417.6000;1.2373;1.7496;
417.9000;1.2324;1.7447;
418.2000;1.2340;1.7422;
418.5000;1.2373;1.7472;
418.8000;1.2324;1.7398;
419.1000;1.2348;1.7373;
419.4000;1.2365;1.7373;
419.7000;1.2365;1.7496;
420.0000;1.2357;1.7447;
420.3000;1.2365;1.7447;
420.6000;1.2397;1.7496;
420.9000;1.2340;1.7324;
421.2000;1.2348;1.7349;
421.5000;1.2357;1.7422;
421.8000;1.2348;1.7472;
422.1000;1.2414;1.7668;
422.4000;1.2348;1.7472;
422.7000;1.2381;1.7496;
423.0000;1.2397;1.7619;
423.3000;1.2348;1.7595;
423.6000;1.2373;1.7570;
423.9000;1.2348;1.7472;
424.2000;1.2373;1.7545;
424.5000;1.2348;1.7472;
424.8000;1.2340;1.7496;
425.1000;1.2340;1.7521;
425.4000;1.2348;1.7472;
425.7000;1.2357;1.7496;
426.0000;1.2365;1.7398;
426.3000;1.2348;1.7349;
426.6000;1.2357;1.7373;
426.9000;1.2332;1.7398;
427.2000;1.2340;1.7496;
427.5000;1.2365;1.7521;
427.8000;1.2373;1.7595;
428.1000;1.2414;1.7644;
428.4000;1.2373;1.7644;
428.7000;1.2348;1.7521;
429.0000;1.2414;1.7619;
429.3000;1.2357;1.7472;
429.6000;1.2324;1.7521;
429.9000;1.2332;1.7595;
430.2000;1.2340;1.7545;
430.5000;1.2357;1.7545;
430.8000;1.2357;1.7496;
431.1000;1.2430;1.7668;
431.4000;1.2340;1.7349;
431.7000;1.2348;1.7349;
432.0000;1.2332;1.7422;
432.3000;1.2397;1.7570;
432.6000;1.2316;1.7373;
432.9000;1.2332;1.7299;
433.2000;1.2365;1.7275;
433.5000;1.2283;1.7127;
433.8000;1.2348;1.7275;
434.1000;1.2324;1.7201;
434.4000;1.2332;1.7275;
434.7000;1.2332;1.7226;
435.0000;1.2332;1.7226;
435.3000;1.2308;1.7250;
435.6000;1.2267;1.7102;
435.9000;1.2348;1.7250;
436.2000;1.2348;1.7349;
436.5000;1.2324;1.7275;
436.8000;1.2430;1.7644;
437.1000;1.2332;1.7349;
437.4000;1.2332;1.7324;
437.7000;1.2348;1.7324;
438.0000;1.2332;1.7324;
438.3000;1.2357;1.7496;
438.6000;1.2446;1.7718;
438.9000;1.2348;1.7595;
439.2000;1.2438;1.7792;
439.5000;1.2365;1.7693;
439.8000;1.2340;1.7570;
440.1000;1.2348;1.7570;
440.4000;1.2316;1.7521;
440.7000;1.2324;1.7496;
441.0000;1.2348;1.7570;
441.3000;1.2332;1.7521;
441.6000;1.2324;1.7496;
441.9000;1.2332;1.7472;
442.2000;1.2332;1.7521;
442.5000;1.2373;1.7545;
442.8000;1.2340;1.7398;
443.1000;1.2357;1.7373;
443.4000;1.2340;1.7422;
443.7000;1.2332;1.7472;
444.0000;1.2348;1.7472;
444.3000;1.2332;1.7447;
444.6000;1.2365;1.7496;
444.9000;1.2365;1.7398;
445.2000;1.2332;1.7349;
445.5000;1.2340;1.7299;
445.8000;1.2348;1.7447;
446.1000;1.2381;1.7521;
446.4000;1.2348;1.7472;
446.7000;1.2332;1.7447;
447.0000;1.2332;1.7422;
447.3000;1.2324;1.7422;
447.6000;1.2373;1.7545;
447.9000;1.2340;1.7521;
448.2000;1.2340;1.7472;
448.5000;1.2348;1.7496;
448.8000;1.2365;1.7472;
449.1000;1.2348;1.7521;
449.4000;1.2348;1.7496;
449.7000;1.2348;1.7496;
450.0000;1.2340;1.7496;
450.3000;1.2357;1.7521;
450.6000;1.2340;1.7496;
450.9000;1.2373;1.7545;
451.2000;1.2340;1.7496;
451.5000;1.2348;1.7422;
451.8000;1.2340;1.7373;
452.1000;1.2389;1.7521;
452.4000;1.2365;1.7545;
452.7000;1.2357;1.7521;
453.0000;1.2308;1.7398;
453.3000;1.2357;1.7595;
453.6000;1.2357;1.7619;
453.9000;1.2365;1.7619;
454.2000;1.2332;1.7496;
454.5000;1.2300;1.7373;
454.8000;1.2348;1.7447;
455.1000;1.2373;1.7496;
455.4000;1.2348;1.7447;
455.7000;1.2332;1.7398;
456.0000;1.2332;1.7472;
456.3000;1.2324;1.7422;
456.6000;1.2308;1.7422;
456.9000;1.2275;1.7373;
457.2000;1.2300;1.7398;
457.5000;1.2340;1.7545;
457.8000;1.2332;1.7545;
458.1000;1.2397;1.7619;
458.4000;1.2340;1.7447;
458.7000;1.2340;1.7472;
459.0000;1.2373;1.7496;
459.3000;1.2348;1.7496;
459.6000;1.2332;1.7447;
459.9000;1.2340;1.7422;
460.2000;1.2340;1.7422;
460.5000;1.2340;1.7447;
460.8000;1.2332;1.7422;
461.1000;1.2340;1.7472;
461.4000;1.2340;1.7496;
461.7000;1.2308;1.7398;
462.0000;1.2332;1.7447;
462.3000;1.2340;1.7496;
462.6000;1.2324;1.7447;
462.9000;1.2324;1.7496;
463.2000;1.2316;1.7496;
463.5000;1.2332;1.7570;
463.8000;1.2332;1.7545;
464.1000;1.2300;1.7398;
464.4000;1.2332;1.7447;
464.7000;1.2332;1.7373;
465.0000;1.2348;1.7447;
465.3000;1.2348;1.7422;
465.6000;1.2348;1.7447;
465.9000;1.2316;1.7373;
466.2000;1.2340;1.7373;
466.5000;1.2348;1.7373;
466.8000;1.2340;1.7373;
467.1000;1.2316;1.7349;
467.4000;1.2332;1.7324;
467.7000;1.2340;1.7349;
468.0000;1.2348;1.7349;
468.3000;1.2324;1.7422;
468.6000;1.2340;1.7422;
468.9000;1.2340;1.7422;
469.2000;1.2373;1.7422;
469.5000;1.2348;1.7398;
469.8000;1.2332;1.7373;
470.1000;1.2332;1.7398;
470.4000;1.2348;1.7349;
470.7000;1.2340;1.7398;
471.0000;1.2340;1.7422;
471.3000;1.2324;1.7398;
471.6000;1.2348;1.7447;
471.9000;1.2340;1.7422;
472.2000;1.2308;1.7373;
472.5000;1.2324;1.7472;
472.8000;1.2340;1.7472;
473.1000;1.2397;1.7619;
473.4000;1.2348;1.7545;
473.7000;1.2340;1.7373;
474.0000;1.2332;1.7422;
474.3000;1.2324;1.7398;
474.6000;1.2332;1.7496;
474.9000;1.2332;1.7496;
475.2000;1.2340;1.7521;
475.5000;1.2332;1.7447;
475.8000;1.2324;1.7398;
476.1000;1.2308;1.7373;
476.4000;1.2373;1.7521;
476.7000;1.2357;1.7422;
477.0000;1.2340;1.7398;
477.3000;1.2324;1.7349;
477.6000;1.2373;1.7545;
477.9000;1.2340;1.7521;
478.2000;1.2340;1.7496;
478.5000;1.2332;1.7496;
478.8000;1.2324;1.7545;
479.1000;1.2332;1.7545;
479.4000;1.2357;1.7570;
479.7000;1.2332;1.7496;
480.0000;1.2308;1.7324;
480.3000;1.2389;1.7447;
480.6000;1.2340;1.7299;
480.9000;1.2348;1.7422;
481.2000;1.2381;1.7545;
481.5000;1.2389;1.7570;
481.8000;1.2324;1.7373;
482.1000;1.2316;1.7299;
482.4000;1.2373;1.7422;
482.7000;1.2291;1.7226;
483.0000;1.2332;1.7324;
483.3000;1.2389;1.7545;
483.6000;1.2381;1.7521;
483.9000;1.2324;1.7398;
484.2000;1.2324;1.7472;
484.5000;1.2332;1.7521;
484.8000;1.2357;1.7595;
485.1000;1.2348;1.7545;
485.4000;1.2324;1.7496;
485.7000;1.2332;1.7447;
486.0000;1.2405;1.7570;
486.3000;1.2300;1.7349;
486.6000;1.2340;1.7398;
486.9000;1.2389;1.7545;
487.2000;1.2332;1.7447;
487.5000;1.2348;1.7398;
487.8000;1.2405;1.7595;
488.1000;1.2332;1.7447;
488.4000;1.2348;1.7447;
488.7000;1.2316;1.7373;
489.0000;1.2348;1.7422;
489.3000;1.2324;1.7422;
489.6000;1.2340;1.7496;
489.9000;1.2348;1.7545;
490.2000;1.2405;1.7619;
490.5000;1.2332;1.7422;
490.8000;1.2365;1.7447;
491.1000;1.2332;1.7373;
491.4000;1.2348;1.7422;
491.7000;1.2348;1.7447;
492.0000;1.2340;1.7422;
492.3000;1.2340;1.7472;
492.6000;1.2324;1.7472;
492.9000;1.2324;1.7447;
493.2000;1.2332;1.7472;
493.5000;1.2340;1.7496;
493.8000;1.2332;1.7447;
494.1000;1.2332;1.7496;
494.4000;1.2332;1.7472;
494.7000;1.2308;1.7373;
495.0000;1.2316;1.7398;
495.3000;1.2324;1.7275;
495.6000;1.2340;1.7324;
495.9000;1.2348;1.7398;
496.2000;1.2365;1.7496;
496.5000;1.2340;1.7422;
496.8000;1.2324;1.7472;
497.1000;1.2324;1.7398;
497.4000;1.2340;1.7447;
497.7000;1.2332;1.7398;
498.0000;1.2332;1.7398;
498.3000;1.2324;1.7422;
498.6000;1.2324;1.7398;
498.9000;1.2332;1.7324;
499.2000;1.2348;1.7349;
499.5000;1.2316;1.7349;
499.8000;1.2324;1.7496;
500.1000;1.2324;1.7521;
500.4000;1.2332;1.7545;
500.7000;1.2300;1.7447;
501.0000;1.2332;1.7496;
501.3000;1.2332;1.7570;
501.6000;1.2324;1.7521;
501.9000;1.2324;1.7422;
502.2000;1.2316;1.7447;
502.5000;1.2324;1.7496;
502.8000;1.2324;1.7521;
503.1000;1.2316;1.7545;
503.4000;1.2275;1.7447;
503.7000;1.2357;1.7570;
504.0000;1.2348;1.7595;
504.3000;1.2324;1.7545;
504.6000;1.2275;1.7373;
504.9000;1.2332;1.7570;
505.2000;1.2300;1.7545;
505.5000;1.2308;1.7545;
505.8000;1.2324;1.7644;
506.1000;1.2348;1.7693;
506.4000;1.2332;1.7742;
506.7000;1.2340;1.7742;
507.0000;1.2316;1.7644;
507.3000;1.2348;1.7742;
507.6000;1.2348;1.7693;
507.9000;1.2324;1.7693;
508.2000;1.2316;1.7644;
508.5000;1.2324;1.7545;
508.8000;1.2348;1.7570;
509.1000;1.2324;1.7595;
509.4000;1.2308;1.7521;
509.7000;1.2234;1.7275;
510.0000;1.2316;1.7472;
510.3000;1.2365;1.7619;
510.6000;1.2243;1.7422;
510.9000;1.2316;1.7644;
511.2000;1.2316;1.7668;
511.5000;1.2332;1.7718;
511.8000;1.2340;1.7742;
512.1000;1.2332;1.7693;
512.4000;1.2324;1.7668;
512.7000;1.2332;1.7693;
513.0000;1.2348;1.7693;
513.3000;1.2324;1.7619;
513.6000;1.2332;1.7644;
513.9000;1.2340;1.7668;
514.2000;1.2324;1.7693;
514.5000;1.2324;1.7619;
514.8000;1.2308;1.7521;
515.1000;1.2316;1.7521;
515.4000;1.2308;1.7496;
515.7000;1.2316;1.7521;
516.0000;1.2308;1.7496;
516.3000;1.2324;1.7619;
516.6000;1.2324;1.7668;
516.9000;1.2324;1.7644;
517.2000;1.2316;1.7521;
517.5000;1.2308;1.7447;
517.8000;1.2316;1.7398;
518.1000;1.2324;1.7373;
518.4000;1.2340;1.7496;
518.7000;1.2324;1.7349;
519.0000;1.2332;1.7422;
519.3000;1.2308;1.7422;
519.6000;1.2332;1.7496;
519.9000;1.2324;1.7521;
520.2000;1.2308;1.7447;
520.5000;1.2332;1.7472;
520.8000;1.2308;1.7496;
521.1000;1.2300;1.7398;
521.4000;1.2332;1.7447;
521.7000;1.2316;1.7496;
522.0000;1.2316;1.7545;
522.3000;1.2308;1.7570;
522.6000;1.2316;1.7619;
522.9000;1.2357;1.7668;
523.2000;1.2381;1.7619;
523.5000;1.2308;1.7496;
523.8000;1.2291;1.7422;
524.1000;1.2340;1.7545;
524.4000;1.2316;1.7422;
524.7000;1.2324;1.7496;
525.0000;1.2438;1.7816;
525.3000;1.2324;1.7545;
525.6000;1.2332;1.7570;
525.9000;1.2300;1.7472;
526.2000;1.2324;1.7496;
526.5000;1.2300;1.7422;
526.8000;1.2316;1.7472;
527.1000;1.2348;1.7496;
527.4000;1.2316;1.7398;
527.7000;1.2316;1.7447;
528.0000;1.2300;1.7447;
528.3000;1.2259;1.7275;
528.6000;1.2308;1.7373;
528.9000;1.2300;1.7349;
529.2000;1.2267;1.7275;
529.5000;1.2324;1.7422;
529.8000;1.2324;1.7398;
530.1000;1.2324;1.7472;
530.4000;1.2316;1.7496;
530.7000;1.2324;1.7644;
531.0000;1.2308;1.7570;
531.3000;1.2243;1.7349;
531.6000;1.2308;1.7496;
531.9000;1.2300;1.7545;
532.2000;1.2308;1.7496;
532.5000;1.2316;1.7521;
532.8000;1.2291;1.7299;
533.1000;1.2324;1.7398;
533.4000;1.2316;1.7472;
533.7000;1.2381;1.7644;
534.0000;1.2316;1.7472;
534.3000;1.2316;1.7447;
534.6000;1.2332;1.7521;
534.9000;1.2405;1.7644;
535.2000;1.2300;1.7422;
535.5000;1.2324;1.7349;
535.8000;1.2316;1.7422;
536.1000;1.2324;1.7496;
536.4000;1.2308;1.7398;
536.7000;1.2283;1.7422;
537.0000;1.2324;1.7521;
537.3000;1.2316;1.7521;
537.6000;1.2348;1.7545;
537.9000;1.2308;1.7496;
538.2000;1.2308;1.7472;
538.5000;1.2324;1.7496;
538.8000;1.2316;1.7422;
539.1000;1.2316;1.7472;
539.4000;1.2316;1.7422;
539.7000;1.2332;1.7422;
540.0000;1.2324;1.7398;
540.3000;1.2308;1.7398;
540.6000;1.2324;1.7398;
540.9000;1.2291;1.7226;
541.2000;1.2332;1.7349;
541.5000;1.2365;1.7422;
541.8000;1.2300;1.7275;
542.1000;1.2308;1.7373;
542.4000;1.2332;1.7422;
542.7000;1.2308;1.7422;
543.0000;1.2308;1.7422;
543.3000;1.2316;1.7398;
543.6000;1.2332;1.7472;
543.9000;1.2324;1.7472;
544.2000;1.2316;1.7447;
544.5000;1.2324;1.7324;
544.8000;1.2316;1.7299;
545.1000;1.2316;1.7226;
545.4000;1.2316;1.7250;
545.7000;1.2332;1.7324;
546.0000;1.2365;1.7324;
546.3000;1.2332;1.7226;
546.6000;1.2324;1.7201;
546.9000;1.2316;1.7275;
547.2000;1.2267;1.7226;
547.5000;1.2300;1.7299;
547.8000;1.2316;1.7422;
548.1000;1.2381;1.7693;
548.4000;1.2316;1.7472;
548.7000;1.2300;1.7373;
549.0000;1.2316;1.7447;
549.3000;1.2308;1.7422;
549.6000;1.2300;1.7398;
549.9000;1.2324;1.7422;
550.2000;1.2259;1.7324;
550.5000;1.2308;1.7422;
550.8000;1.2308;1.7324;
551.1000;1.2308;1.7349;
551.4000;1.2316;1.7373;
551.7000;1.2300;1.7324;
552.0000;1.2300;1.7299;
552.3000;1.2300;1.7299;
552.6000;1.2332;1.7373;
552.9000;1.2316;1.7422;
553.2000;1.2324;1.7447;
553.5000;1.2300;1.7398;
553.8000;1.2308;1.7496;
554.1000;1.2348;1.7619;
554.4000;1.2300;1.7422;
554.7000;1.2259;1.7373;
555.0000;1.2324;1.7496;
555.3000;1.2300;1.7373;
555.6000;1.2308;1.7373;
555.9000;1.2324;1.7349;
556.2000;1.2291;1.7275;
556.5000;1.2324;1.7299;
556.8000;1.2267;1.7176;
557.1000;1.2300;1.7299;
557.4000;1.2316;1.7373;
557.7000;1.2324;1.7324;
558.0000;1.2300;1.7275;
558.3000;1.2316;1.7299;
558.6000;1.2300;1.7422;
558.9000;1.2300;1.7447;
559.2000;1.2332;1.7496;
559.5000;1.2316;1.7496;
559.8000;1.2316;1.7521;
560.1000;1.2316;1.7545;
560.4000;1.2332;1.7545;
560.7000;1.2332;1.7496;
561.0000;1.2308;1.7472;
561.3000;1.2324;1.7521;
561.6000;1.2316;1.7447;
561.9000;1.2275;1.7373;
562.2000;1.2291;1.7422;
562.5000;1.2300;1.7447;
562.8000;1.2291;1.7373;
563.1000;1.2308;1.7398;
563.4000;1.2300;1.7422;
563.7000;1.2300;1.7422;
564.0000;1.2332;1.7398;
564.3000;1.2332;1.7447;
564.6000;1.2308;1.7373;
564.9000;1.2291;1.7398;
565.2000;1.2324;1.7447;
565.5000;1.2316;1.7398;
565.8000;1.2332;1.7398;
566.1000;1.2324;1.7324;
566.4000;1.2316;1.7275;
566.7000;1.2316;1.7324;
567.0000;1.2308;1.7176;
567.3000;1.2324;1.7201;
567.6000;1.2300;1.7176;
567.9000;1.2348;1.7324;
568.2000;1.2308;1.7176;
568.5000;1.2316;1.7152;
568.8000;1.2291;1.7201;
569.1000;1.2316;1.7275;
569.4000;1.2316;1.7324;
569.7000;1.2316;1.7299;
570.0000;1.2332;1.7275;
570.3000;1.2365;1.7422;
570.6000;1.2308;1.7422;
570.9000;1.2340;1.7521;
571.2000;1.2308;1.7521;
571.5000;1.2316;1.7521;
571.8000;1.2300;1.7472;
572.1000;1.2316;1.7595;
572.4000;1.2340;1.7644;
572.7000;1.2283;1.7422;
573.0000;1.2308;1.7398;
573.3000;1.2291;1.7447;
573.6000;1.2357;1.7422;
573.9000;1.2308;1.7226;
574.2000;1.2243;1.7102;
574.5000;1.2332;1.7398;
574.8000;1.2300;1.7398;
575.1000;1.2300;1.7398;
575.4000;1.2291;1.7472;
575.7000;1.2259;1.7422;
576.0000;1.2300;1.7447;
576.3000;1.2308;1.7422;
576.6000;1.2291;1.7447;
576.9000;1.2324;1.7398;
577.2000;1.2308;1.7349;
577.5000;1.2316;1.7373;
577.8000;1.2300;1.7398;
578.1000;1.2283;1.7324;
578.4000;1.2316;1.7349;
578.7000;1.2308;1.7324;
579.0000;1.2300;1.7226;
579.3000;1.2291;1.7250;
579.6000;1.2332;1.7349;
579.9000;1.2324;1.7275;
580.2000;1.2291;1.7176;
580.5000;1.2324;1.7250;
580.8000;1.2324;1.7324;
581.1000;1.2308;1.7176;
581.4000;1.2300;1.7127;
581.7000;1.2308;1.7127;
582.0000;1.2226;1.6955;
582.3000;1.2316;1.7275;
582.6000;1.2300;1.7275;
582.9000;1.2283;1.7250;
583.2000;1.2300;1.7422;
583.5000;1.2324;1.7447;
583.8000;1.2291;1.7324;
584.1000;1.2267;1.7299;
584.4000;1.2308;1.7349;
584.7000;1.2308;1.7275;
585.0000;1.2340;1.7398;
585.3000;1.2308;1.7373;
585.6000;1.2283;1.7373;
585.9000;1.2300;1.7398;
586.2000;1.2316;1.7447;
586.5000;1.2300;1.7447;
586.8000;1.2283;1.7422;
587.1000;1.2300;1.7472;
587.4000;1.2300;1.7447;
587.7000;1.2300;1.7447;
588.0000;1.2300;1.7349;
588.3000;1.2308;1.7349;
588.6000;1.2291;1.7373;
588.9000;1.2316;1.7422;
589.2000;1.2316;1.7422;
589.5000;1.2324;1.7570;
589.8000;1.2300;1.7570;
590.1000;1.2300;1.7619;
590.4000;1.2283;1.7545;
590.7000;1.2300;1.7644;
591.0000;1.2332;1.7570;
591.3000;1.2332;1.7545;
591.6000;1.2300;1.7496;
591.9000;1.2300;1.7422;
592.2000;1.2300;1.7422;
592.5000;1.2300;1.7349;
592.8000;1.2308;1.7447;
593.1000;1.2316;1.7570;
593.4000;1.2316;1.7496;
593.7000;1.2316;1.7521;
594.0000;1.2291;1.7496;
594.3000;1.2316;1.7521;
594.6000;1.2291;1.7422;
594.9000;1.2291;1.7447;
595.2000;1.2316;1.7447;
595.5000;1.2283;1.7373;
595.8000;1.2316;1.7398;
596.1000;1.2308;1.7422;
596.4000;1.2291;1.7398;
596.7000;1.2259;1.7275;
597.0000;1.2267;1.7324;
597.3000;1.2308;1.7398;
597.6000;1.2291;1.7299;
597.9000;1.2308;1.7373;
598.2000;1.2259;1.7275;
598.5000;1.2308;1.7398;
598.8000;1.2308;1.7373;
599.1000;1.2275;1.7349;
599.4000;1.2291;1.7496;
599.7000;1.2275;1.7373;
600.0000;1.2283;1.7349;
600.3000;1.2308;1.7349;
600.6000;1.2300;1.7176;
600.9000;1.2259;1.7029;
601.2000;1.2226;1.7004;
601.5000;1.2137;1.6856;
601.8000;1.2047;1.6660;
602.1000;1.1966;1.6487;
602.4000;1.1893;1.6290;
602.7000;1.1787;1.6094;
603.0000;1.1705;1.5971;
603.3000;1.1616;1.5798;
603.6000;1.1518;1.5577;
603.9000;1.1469;1.5528;
604.2000;1.1372;1.5331;
604.5000;1.1306;1.5232;
604.8000;1.1217;1.5035;
605.1000;1.1176;1.5085;
605.4000;1.1079;1.4912;
605.7000;1.1022;1.4863;
606.0000;1.0965;1.4765;
606.3000;1.0899;1.4740;
606.6000;1.0851;1.4691;
606.9000;1.0786;1.4592;
607.2000;1.0729;1.4592;
607.5000;1.0688;1.4568;
607.8000;1.0704;1.4666;
608.1000;1.0566;1.4396;
608.4000;1.0517;1.4445;
608.7000;1.0476;1.4346;
609.0000;1.0419;1.4199;
609.3000;1.0403;1.4223;
609.6000;1.0265;1.3953;
609.9000;1.0281;1.4026;
610.2000;1.0216;1.3928;
610.5000;1.0142;1.3682;
610.8000;1.0126;1.3657;
611.1000;1.0077;1.3608;
611.4000;1.0037;1.3584;
611.7000;0.9996;1.3534;
612.0000;0.9939;1.3559;
612.3000;0.9915;1.3584;
612.6000;0.9882;1.3510;
612.9000;0.9825;1.3485;
613.2000;0.9801;1.3534;
613.5000;0.9752;1.3510;
613.8000;0.9711;1.3510;
614.1000;0.9695;1.3584;
614.4000;0.9630;1.3461;
614.7000;0.9597;1.3461;
615.0000;0.9540;1.3461;
615.3000;0.9516;1.3510;
615.6000;0.9524;1.3608;
615.9000;0.9467;1.3534;
616.2000;0.9434;1.3510;
616.5000;0.9394;1.3485;
616.8000;0.9369;1.3510;
617.1000;0.9345;1.3510;
617.4000;0.9296;1.3436;
617.7000;0.9271;1.3362;
618.0000;0.9247;1.3313;
618.3000;0.9288;1.3362;
618.6000;0.9190;1.3190;
618.9000;0.9182;1.3239;
619.2000;0.9125;1.3239;
619.5000;0.9092;1.3214;
619.8000;0.9084;1.3288;
620.1000;0.9011;1.3190;
620.4000;0.8987;1.3214;
620.7000;0.8970;1.3288;
621.0000;0.8954;1.3141;
621.3000;0.8905;1.3042;
621.6000;0.8889;1.2993;
621.9000;0.8897;1.3141;
622.2000;0.8905;1.3239;
622.5000;0.8824;1.3042;
622.8000;0.8816;1.3091;
623.1000;0.8783;1.3067;
623.4000;0.8759;1.2993;
623.7000;0.8751;1.2944;
624.0000;0.8718;1.2944;
624.3000;0.8685;1.2993;
624.6000;0.8685;1.2993;
624.9000;0.8645;1.2845;
625.2000;0.8588;1.2648;
625.5000;0.8580;1.2698;
625.8000;0.8580;1.2771;
626.1000;0.8571;1.2821;
626.4000;0.8547;1.2821;
626.7000;0.8523;1.2895;
627.0000;0.8498;1.2919;
627.3000;0.8457;1.2821;
627.6000;0.8457;1.2944;
627.9000;0.8376;1.2796;
628.2000;0.8539;1.3239;
628.5000;0.8425;1.3042;
628.8000;0.8384;1.3018;
629.1000;0.8400;1.3018;
629.4000;0.8360;1.2993;
629.7000;0.8319;1.2993;
630.0000;0.8327;1.3018;
630.3000;0.8303;1.2919;
630.6000;0.8270;1.2895;
630.9000;0.8278;1.2919;
631.2000;0.8246;1.2919;
631.5000;0.8189;1.2796;
631.8000;0.8205;1.2919;
632.1000;0.8230;1.2870;
632.4000;0.8181;1.2821;
632.7000;0.8173;1.2870;
633.0000;0.8140;1.2771;
633.3000;0.8140;1.2771;
633.6000;0.8124;1.2870;
633.9000;0.8107;1.2845;
634.2000;0.8099;1.2870;
634.5000;0.8091;1.2895;
634.8000;0.8075;1.2919;
635.1000;0.8026;1.2821;
635.4000;0.8034;1.2821;
635.7000;0.8034;1.2821;
636.0000;0.8026;1.2870;
636.3000;0.8010;1.2919;
636.6000;0.7977;1.2895;
636.9000;0.7953;1.2968;
637.2000;0.7969;1.2968;
637.5000;0.7937;1.2821;
637.8000;0.7928;1.2845;
638.1000;0.7912;1.2845;
638.4000;0.7920;1.2796;
638.7000;0.7920;1.2845;
639.0000;0.7888;1.2747;
639.3000;0.7871;1.2845;
639.6000;0.7871;1.2895;
639.9000;0.7847;1.2919;
640.2000;0.7847;1.2919;
640.5000;0.7839;1.2919;
640.8000;0.7806;1.2870;
641.1000;0.7814;1.2919;
641.4000;0.7831;1.2968;
641.7000;0.7717;1.2673;
642.0000;0.7749;1.2796;
642.3000;0.7766;1.2870;
642.6000;0.7774;1.2895;
642.9000;0.7733;1.2821;
643.2000;0.7733;1.2796;
643.5000;0.7684;1.2747;
643.8000;0.7709;1.2796;
644.1000;0.7700;1.2895;
644.4000;0.7676;1.2821;
644.7000;0.7733;1.2968;
645.0000;0.7692;1.2895;
645.3000;0.7660;1.2895;
645.6000;0.7660;1.2845;
645.9000;0.7652;1.2845;
646.2000;0.7643;1.2771;
646.5000;0.7635;1.2747;
646.8000;0.7611;1.2722;
647.1000;0.7603;1.2698;
647.4000;0.7603;1.2747;
647.7000;0.7627;1.2895;
648.0000;0.7586;1.2747;
648.3000;0.7570;1.2796;
648.6000;0.7570;1.2771;
648.9000;0.7570;1.2771;
649.2000;0.7546;1.2722;
649.5000;0.7530;1.2796;
649.8000;0.7521;1.2796;
650.1000;0.7530;1.2771;
650.4000;0.7505;1.2796;
650.7000;0.7521;1.2796;
651.0000;0.7497;1.2771;
651.3000;0.7554;1.2870;
651.6000;0.7497;1.2698;
651.9000;0.7489;1.2698;
652.2000;0.7473;1.2599;
652.5000;0.7464;1.2648;
652.8000;0.7473;1.2525;
653.1000;0.7456;1.2525;
653.4000;0.7440;1.2550;
653.7000;0.7432;1.2525;
654.0000;0.7448;1.2575;
654.3000;0.7432;1.2550;
654.6000;0.7416;1.2550;
654.9000;0.7416;1.2599;
655.2000;0.7424;1.2648;
655.5000;0.7407;1.2599;
655.8000;0.7391;1.2550;
656.1000;0.7350;1.2550;
656.4000;0.7367;1.2599;
656.7000;0.7310;1.2501;
657.0000;0.7367;1.2673;
657.3000;0.7350;1.2624;
657.6000;0.7326;1.2550;
657.9000;0.7432;1.2845;
658.2000;0.7334;1.2648;
658.5000;0.7310;1.2698;
658.8000;0.7293;1.2722;
659.1000;0.7302;1.2747;
659.4000;0.7310;1.2698;
659.7000;0.7310;1.2796;
660.0000;0.7277;1.2722;
660.3000;0.7302;1.2722;
660.6000;0.7293;1.2747;
660.9000;0.7293;1.2747;
661.2000;0.7293;1.2747;
661.5000;0.7367;1.3018;
661.8000;0.7269;1.2845;
662.1000;0.7245;1.2771;
662.4000;0.7253;1.2747;
662.7000;0.7236;1.2648;
663.0000;0.7236;1.2648;
663.3000;0.7236;1.2673;
663.6000;0.7220;1.2673;
663.9000;0.7245;1.2796;
664.2000;0.7228;1.2821;
664.5000;0.7212;1.2747;
664.8000;0.7220;1.2722;
665.1000;0.7204;1.2648;
665.4000;0.7188;1.2648;
665.7000;0.7171;1.2550;
666.0000;0.7220;1.2698;
666.3000;0.7147;1.2476;
666.6000;0.7188;1.2575;
666.9000;0.7188;1.2525;
667.2000;0.7171;1.2427;
667.5000;0.7155;1.2402;
667.8000;0.7171;1.2378;
668.1000;0.7163;1.2501;
668.4000;0.7074;1.2329;
668.7000;0.7188;1.2550;
669.0000;0.7147;1.2550;
669.3000;0.7196;1.2747;
669.6000;0.7139;1.2648;
669.9000;0.7123;1.2599;
670.2000;0.7147;1.2624;
670.5000;0.7123;1.2501;
670.8000;0.7123;1.2501;
671.1000;0.7114;1.2476;
671.4000;0.7098;1.2378;
671.7000;0.7033;1.2230;
672.0000;0.7098;1.2476;
672.3000;0.7114;1.2525;
672.6000;0.7066;1.2525;
672.9000;0.7090;1.2599;
673.2000;0.7000;1.2378;
673.5000;0.7066;1.2673;
673.8000;0.7057;1.2771;
674.1000;0.7114;1.2870;
674.4000;0.7066;1.2821;
674.7000;0.7090;1.2919;
675.0000;0.7066;1.2919;
675.3000;0.7057;1.2944;
675.6000;0.7082;1.2895;
675.9000;0.7098;1.2919;
676.2000;0.7057;1.2747;
676.5000;0.7033;1.2747;
676.8000;0.7041;1.2722;
677.1000;0.7090;1.2895;
677.4000;0.7041;1.2747;
677.7000;0.7090;1.2821;
678.0000;0.7033;1.2673;
678.3000;0.7009;1.2599;
678.6000;0.7000;1.2525;
678.9000;0.7000;1.2525;
679.2000;0.7009;1.2525;
679.5000;0.6992;1.2427;
679.8000;0.7017;1.2501;
680.1000;0.7000;1.2550;
680.4000;0.6992;1.2624;
680.7000;0.6976;1.2575;
681.0000;0.6992;1.2599;
681.3000;0.7000;1.2673;
681.6000;0.6984;1.2575;
681.9000;0.6984;1.2550;
682.2000;0.6992;1.2575;
682.5000;0.6960;1.2525;
682.8000;0.6968;1.2452;
683.1000;0.6984;1.2599;
683.4000;0.6968;1.2525;
683.7000;0.6943;1.2427;
684.0000;0.6960;1.2575;
684.3000;0.6976;1.2525;
684.6000;0.6943;1.2402;
684.9000;0.6976;1.2550;
685.2000;0.6943;1.2525;
685.5000;0.6935;1.2501;
685.8000;0.6952;1.2599;
686.1000;0.6968;1.2575;
686.4000;0.6911;1.2501;
686.7000;0.6943;1.2575;
687.0000;0.6943;1.2648;
687.3000;0.6895;1.2575;
687.6000;0.6935;1.2648;
687.9000;0.6976;1.2771;
688.2000;0.6919;1.2575;
688.5000;0.6919;1.2550;
688.8000;0.6895;1.2550;
689.1000;0.6952;1.2624;
689.4000;0.6886;1.2525;
689.7000;0.6919;1.2648;
690.0000;0.6854;1.2525;
690.3000;0.6895;1.2747;
690.6000;0.6895;1.2722;
690.9000;0.6911;1.2796;
691.2000;0.6895;1.2771;
691.5000;0.6838;1.2550;
691.8000;0.6911;1.2673;
692.1000;0.6878;1.2648;
692.4000;0.6911;1.2698;
692.7000;0.6903;1.2747;
693.0000;0.6878;1.2771;
693.3000;0.6862;1.2771;
693.6000;0.6870;1.2845;
693.9000;0.6878;1.2747;
694.2000;0.6846;1.2648;
694.5000;0.6805;1.2525;
694.8000;0.6878;1.2648;
695.1000;0.6862;1.2722;
695.4000;0.6862;1.2673;
695.7000;0.6862;1.2550;
696.0000;0.6854;1.2624;
696.3000;0.6862;1.2698;
696.6000;0.6862;1.2698;
696.9000;0.6870;1.2747;
697.2000;0.6846;1.2722;
697.5000;0.6838;1.2796;
697.8000;0.6797;1.2698;
698.1000;0.6846;1.2796;
698.4000;0.6829;1.2747;
698.7000;0.6838;1.2747;
699.0000;0.6838;1.2747;
699.3000;0.6829;1.2747;
699.6000;0.6829;1.2722;
699.9000;0.6838;1.2698;
700.2000;0.6838;1.2771;
700.5000;0.6813;1.2722;
700.8000;0.6829;1.2673;
701.1000;0.6829;1.2698;
701.4000;0.6838;1.2771;
701.7000;0.6829;1.2771;
702.0000;0.6805;1.2747;
702.3000;0.6821;1.2771;
702.6000;0.6805;1.2747;
702.9000;0.6829;1.2870;
703.2000;0.6805;1.2845;
703.5000;0.6756;1.2722;
703.8000;0.6813;1.2919;
704.1000;0.6805;1.2919;
704.4000;0.6724;1.2698;
704.7000;0.6813;1.2944;
705.0000;0.6789;1.2919;
705.3000;0.6797;1.2821;
705.6000;0.6789;1.2698;
705.9000;0.6789;1.2599;
706.2000;0.6789;1.2550;
706.5000;0.6805;1.2673;
706.8000;0.6797;1.2698;
707.1000;0.6789;1.2698;
707.4000;0.6789;1.2648;
707.7000;0.6789;1.2575;
708.0000;0.6772;1.2575;
708.3000;0.6772;1.2575;
708.6000;0.6781;1.2550;
708.9000;0.6789;1.2575;
709.2000;0.6789;1.2575;
709.5000;0.6756;1.2550;
709.8000;0.6772;1.2525;
710.1000;0.6781;1.2550;
710.4000;0.6781;1.2673;
710.7000;0.6764;1.2648;
711.0000;0.6740;1.2550;
711.3000;0.6707;1.2575;
711.6000;0.6846;1.3018;
711.9000;0.6756;1.2845;
712.2000;0.6805;1.3018;
712.5000;0.6724;1.2771;
712.8000;0.6764;1.2895;
713.1000;0.6764;1.2919;
713.4000;0.6781;1.3042;
713.7000;0.6756;1.2993;
714.0000;0.6732;1.2919;
714.3000;0.6748;1.2895;
714.6000;0.6740;1.2821;
714.9000;0.6756;1.2895;
715.2000;0.6748;1.2919;
715.5000;0.6756;1.2968;
715.8000;0.6756;1.2944;
716.1000;0.6691;1.2747;
716.4000;0.6748;1.2870;
716.7000;0.6724;1.2895;
717.0000;0.6740;1.2993;
717.3000;0.6740;1.2993;
717.6000;0.6740;1.2968;
717.9000;0.6740;1.2968;
718.2000;0.6716;1.2944;
718.5000;0.6732;1.2968;
718.8000;0.6716;1.2944;
719.1000;0.6667;1.2895;
719.4000;0.6716;1.3067;
719.7000;0.6707;1.3042;
720.0000;0.6707;1.3018;
720.3000;0.6707;1.3042;
720.6000;0.6724;1.3067;
720.9000;0.6699;1.3018;
721.2000;0.6716;1.3067;
721.5000;0.6675;1.3091;
721.8000;0.6716;1.3165;
722.1000;0.6699;1.3091;
722.4000;0.6724;1.3091;
722.7000;0.6707;1.3018;
723.0000;0.6707;1.2895;
723.3000;0.6699;1.2993;
723.6000;0.6716;1.2993;
723.9000;0.6707;1.2993;
724.2000;0.6724;1.3091;
724.5000;0.6716;1.3141;
724.8000;0.6716;1.3141;
725.1000;0.6691;1.3042;
725.4000;0.6691;1.3018;
725.7000;0.6707;1.3141;
726.0000;0.6707;1.3165;
726.3000;0.6691;1.3042;
726.6000;0.6691;1.2919;
726.9000;0.6683;1.2845;
727.2000;0.6691;1.2821;
727.5000;0.6675;1.2821;
727.8000;0.6691;1.2895;
728.1000;0.6683;1.2821;
728.4000;0.6691;1.2722;
728.7000;0.6691;1.2722;
729.0000;0.6675;1.2796;
729.3000;0.6683;1.2919;
729.6000;0.6683;1.3018;
729.9000;0.6683;1.2968;
730.2000;0.6675;1.2968;
730.5000;0.6659;1.2968;
730.8000;0.6675;1.2993;
731.1000;0.6659;1.3018;
731.4000;0.6683;1.3042;
731.7000;0.6659;1.3042;
732.0000;0.6675;1.2919;
732.3000;0.6642;1.2821;
732.6000;0.6675;1.2895;
732.9000;0.6667;1.2870;
733.2000;0.6667;1.2870;
733.5000;0.6659;1.2821;
733.8000;0.6667;1.2895;
734.1000;0.6650;1.2796;
734.4000;0.6659;1.2821;
734.7000;0.6659;1.2919;
735.0000;0.6667;1.2895;
735.3000;0.6642;1.2870;
735.6000;0.6659;1.2796;
735.9000;0.6667;1.2747;
736.2000;0.6667;1.2796;
736.5000;0.6667;1.2771;
736.8000;0.6659;1.2845;
737.1000;0.6659;1.2870;
737.4000;0.6650;1.2944;
737.7000;0.6691;1.3067;
738.0000;0.6650;1.2870;
738.3000;0.6602;1.2747;
738.6000;0.6659;1.2821;
738.9000;0.6642;1.2722;
739.2000;0.6650;1.2771;
739.5000;0.6732;1.2968;
739.8000;0.6732;1.3042;
740.1000;0.6650;1.2870;
740.4000;0.6642;1.2870;
740.7000;0.6634;1.2870;
741.0000;0.6642;1.2821;
741.3000;0.6659;1.2845;
741.6000;0.6659;1.2796;
741.9000;0.6642;1.2771;
742.2000;0.6650;1.2796;
742.5000;0.6634;1.2722;
742.8000;0.6642;1.2747;
743.1000;0.6642;1.2722;
743.4000;0.6642;1.2747;
743.7000;0.6634;1.2722;
744.0000;0.6626;1.2698;
744.3000;0.6642;1.2771;
744.6000;0.6650;1.2845;
744.9000;0.6634;1.2821;
745.2000;0.6634;1.2845;
745.5000;0.6626;1.2771;
745.8000;0.6642;1.2747;
746.1000;0.6716;1.2895;
746.4000;0.6642;1.2698;
746.7000;0.6626;1.2648;
747.0000;0.6610;1.2747;
747.3000;0.6618;1.2771;
747.6000;0.6626;1.2821;
747.9000;0.6634;1.2821;
748.2000;0.6618;1.2796;
748.5000;0.6618;1.2771;
748.8000;0.6618;1.2747;
749.1000;0.6626;1.2698;
749.4000;0.6642;1.2722;
749.7000;0.6634;1.2648;
750.0000;0.6642;1.2673;
750.3000;0.6634;1.2722;
750.6000;0.6610;1.2771;
750.9000;0.6659;1.2944;
751.2000;0.6585;1.2796;
751.5000;0.6610;1.2796;
751.8000;0.6618;1.2845;
752.1000;0.6650;1.3042;
752.4000;0.6610;1.2968;
752.7000;0.6610;1.3018;
753.0000;0.6593;1.2895;
753.3000;0.6593;1.2968;
753.6000;0.6593;1.2919;
753.9000;0.6626;1.3018;
754.2000;0.6602;1.3018;
754.5000;0.6610;1.3042;
754.8000;0.6585;1.2993;
755.1000;0.6618;1.3116;
755.4000;0.6618;1.3165;
755.7000;0.6585;1.3067;
756.0000;0.6602;1.3116;
756.3000;0.6602;1.3067;
756.6000;0.6634;1.3067;
756.9000;0.6634;1.3018;
757.2000;0.6610;1.2968;
757.5000;0.6585;1.2944;
757.8000;0.6602;1.2919;
758.1000;0.6610;1.2895;
758.4000;0.6593;1.2821;
758.7000;0.6602;1.2796;
759.0000;0.6634;1.2895;
759.3000;0.6610;1.2919;
759.6000;0.6634;1.2968;
759.9000;0.6602;1.3042;
760.2000;0.6553;1.2919;
760.5000;0.6593;1.3042;
760.8000;0.6602;1.3067;
761.1000;0.6618;1.3091;
761.4000;0.6634;1.3141;
761.7000;0.6618;1.3190;
762.0000;0.6585;1.3214;
762.3000;0.6593;1.3239;
762.6000;0.6577;1.3239;
762.9000;0.6593;1.3214;
763.2000;0.6602;1.3288;
763.5000;0.6585;1.3190;
763.8000;0.6585;1.3190;
764.1000;0.6618;1.3190;
764.4000;0.6585;1.3067;
764.7000;0.6593;1.3067;
765.0000;0.6569;1.2993;
765.3000;0.6577;1.2919;
765.6000;0.6577;1.2944;
765.9000;0.6585;1.3018;
766.2000;0.6585;1.3042;
766.5000;0.6585;1.2993;
766.8000;0.6593;1.2993;
767.1000;0.6650;1.3116;
767.4000;0.6577;1.2968;
767.7000;0.6577;1.2993;
768.0000;0.6593;1.2968;
768.3000;0.6593;1.2919;
768.6000;0.6585;1.2919;
768.9000;0.6618;1.2993;
769.2000;0.6585;1.2895;
769.5000;0.6593;1.2870;
769.8000;0.6593;1.2895;
770.1000;0.6585;1.2919;
770.4000;0.6585;1.2993;
770.7000;0.6561;1.2993;
771.0000;0.6593;1.3067;
771.3000;0.6602;1.3165;
771.6000;0.6593;1.3141;
771.9000;0.6585;1.3165;
772.2000;0.6593;1.3165;
772.5000;0.6585;1.3067;
772.8000;0.6561;1.3018;
773.1000;0.6602;1.3116;
773.4000;0.6593;1.3067;
773.7000;0.6593;1.3018;
774.0000;0.6561;1.3067;
774.3000;0.6577;1.3042;
774.6000;0.6593;1.3165;
774.9000;0.6610;1.3239;
775.2000;0.6569;1.3239;
775.5000;0.6577;1.3141;
775.8000;0.6569;1.3018;
776.1000;0.6577;1.3042;
776.4000;0.6569;1.3042;
776.7000;0.6553;1.3042;
777.0000;0.6634;1.3239;
777.3000;0.6585;1.3141;
777.6000;0.6479;1.2895;
777.9000;0.6642;1.3288;
778.2000;0.6569;1.3116;
778.5000;0.6577;1.3141;
778.8000;0.6577;1.3116;
779.1000;0.6545;1.2968;
779.4000;0.6536;1.2968;
779.7000;0.6561;1.3042;
780.0000;0.6553;1.2993;
780.3000;0.6610;1.3018;
780.6000;0.6593;1.3018;
780.9000;0.6553;1.2919;
781.2000;0.6536;1.2845;
781.5000;0.6561;1.2870;
781.8000;0.6577;1.2919;
782.1000;0.6553;1.2895;
782.4000;0.6569;1.2895;
782.7000;0.6585;1.2944;
783.0000;0.6553;1.2821;
783.3000;0.6691;1.3165;
783.6000;0.6545;1.2747;
783.9000;0.6553;1.2673;
784.2000;0.6545;1.2698;
784.5000;0.6496;1.2599;
784.8000;0.6553;1.2845;
785.1000;0.6553;1.2821;
785.4000;0.6528;1.2796;
785.7000;0.6520;1.2722;
786.0000;0.6504;1.2624;
786.3000;0.6659;1.3018;
786.6000;0.6553;1.2771;
786.9000;0.6561;1.2845;
787.2000;0.6561;1.2821;
787.5000;0.6536;1.2870;
787.8000;0.6528;1.2796;
788.1000;0.6577;1.2944;
788.4000;0.6536;1.2895;
788.7000;0.6536;1.2895;
789.0000;0.6553;1.2944;
789.3000;0.6536;1.2870;
789.6000;0.6553;1.2944;
789.9000;0.6553;1.2968;
790.2000;0.6471;1.2821;
790.5000;0.6536;1.2944;
790.8000;0.6536;1.2993;
791.1000;0.6553;1.3067;
791.4000;0.6553;1.3042;
791.7000;0.6545;1.2944;
792.0000;0.6528;1.2919;
792.3000;0.6536;1.2944;
792.6000;0.6545;1.3018;
792.9000;0.6569;1.3091;
793.2000;0.6545;1.3067;
793.5000;0.6561;1.3042;
793.8000;0.6561;1.2993;
794.1000;0.6528;1.2919;
794.4000;0.6528;1.2870;
794.7000;0.6561;1.2968;
795.0000;0.6545;1.2944;
795.3000;0.6528;1.2919;
795.6000;0.6512;1.2796;
795.9000;0.6545;1.2821;
796.2000;0.6528;1.2771;
796.5000;0.6545;1.2845;
796.8000;0.6536;1.2919;
797.1000;0.6528;1.2895;
797.4000;0.6545;1.2895;
797.7000;0.6545;1.2796;
798.0000;0.6536;1.2870;
798.3000;0.6553;1.2919;
798.6000;0.6528;1.2944;
798.9000;0.6577;1.3091;
799.2000;0.6545;1.3091;
799.5000;0.6471;1.2993;
799.8000;0.6528;1.3116;
800.1000;0.6512;1.3067;
800.4000;0.6553;1.3067;
800.7000;0.6545;1.3091;
801.0000;0.6561;1.3116;
801.3000;0.6528;1.3042;
801.6000;0.6528;1.3042;
801.9000;0.6528;1.3091;
802.2000;0.6528;1.3116;
802.5000;0.6536;1.3091;
802.8000;0.6528;1.3018;
803.1000;0.6553;1.3067;
803.4000;0.6520;1.2919;
803.7000;0.6536;1.2944;
804.0000;0.6545;1.2993;
804.3000;0.6528;1.3018;
804.6000;0.6536;1.3067;
804.9000;0.6561;1.3141;
805.2000;0.6496;1.2895;
805.5000;0.6528;1.2993;
805.8000;0.6528;1.2944;
806.1000;0.6512;1.2870;
806.4000;0.6520;1.2968;
806.7000;0.6536;1.2968;
807.0000;0.6626;1.3141;
807.3000;0.6479;1.2796;
807.6000;0.6545;1.3042;
807.9000;0.6512;1.3018;
808.2000;0.6528;1.3018;
808.5000;0.6528;1.3018;
808.8000;0.6528;1.2993;
809.1000;0.6545;1.3018;
809.4000;0.6512;1.2895;
809.7000;0.6504;1.2895;
810.0000;0.6536;1.2944;
810.3000;0.6512;1.2895;
810.6000;0.6504;1.2845;
810.9000;0.6512;1.2870;
811.2000;0.6536;1.2895;
811.5000;0.6512;1.2968;
811.8000;0.6545;1.3067;
812.1000;0.6536;1.2993;
812.4000;0.6536;1.2821;
812.7000;0.6520;1.2771;
813.0000;0.6504;1.2747;
813.3000;0.6536;1.2771;
813.6000;0.6520;1.2722;
813.9000;0.6520;1.2722;
814.2000;0.6431;1.2599;
814.5000;0.6520;1.2796;
814.8000;0.6536;1.2968;
815.1000;0.6528;1.2993;
815.4000;0.6528;1.3091;
815.7000;0.6536;1.3067;
816.0000;0.6520;1.2993;
816.3000;0.6536;1.2968;
816.6000;0.6512;1.2993;
816.9000;0.6536;1.3116;
817.2000;0.6520;1.3190;
817.5000;0.6528;1.3165;
817.8000;0.6504;1.3067;
818.1000;0.6536;1.3190;
818.4000;0.6520;1.3165;
818.7000;0.6536;1.3091;
819.0000;0.6536;1.3116;
819.3000;0.6536;1.3067;
819.6000;0.6504;1.2993;
819.9000;0.6512;1.3018;
820.2000;0.6528;1.2968;
820.5000;0.6504;1.2968;
820.8000;0.6536;1.3091;
821.1000;0.6536;1.3214;
821.4000;0.6520;1.3165;
821.7000;0.6528;1.3239;
822.0000;0.6528;1.3239;
822.3000;0.6528;1.3214;
822.6000;0.6439;1.2968;
822.9000;0.6504;1.3141;
823.2000;0.6520;1.3141;
823.5000;0.6536;1.3239;
823.8000;0.6536;1.3214;
824.1000;0.6520;1.3141;
824.4000;0.6528;1.3091;
824.7000;0.6520;1.3042;
825.0000;0.6496;1.3042;
825.3000;0.6520;1.3141;
825.6000;0.6504;1.3091;
825.9000;0.6504;1.3091;
826.2000;0.6520;1.3116;
826.5000;0.6520;1.2993;
826.8000;0.6520;1.3018;
827.1000;0.6577;1.3214;
827.4000;0.6512;1.3067;
827.7000;0.6520;1.3091;
828.0000;0.6520;1.3091;
828.3000;0.6512;1.3067;
828.6000;0.6512;1.3018;
828.9000;0.6520;1.3018;
829.2000;0.6528;1.2993;
829.5000;0.6528;1.2944;
829.8000;0.6528;1.2919;
830.1000;0.6528;1.2919;
830.4000;0.6536;1.2944;
830.7000;0.6528;1.2870;
831.0000;0.6520;1.2944;
831.3000;0.6520;1.2993;
831.6000;0.6504;1.2919;
831.9000;0.6512;1.2944;
832.2000;0.6479;1.2821;
832.5000;0.6512;1.2968;
832.8000;0.6520;1.2993;
833.1000;0.6479;1.2895;
833.4000;0.6496;1.2919;
833.7000;0.6479;1.2895;
834.0000;0.6520;1.2944;
834.3000;0.6504;1.2870;
834.6000;0.6488;1.2895;
834.9000;0.6504;1.2944;
835.2000;0.6593;1.3165;
835.5000;0.6496;1.2919;
835.8000;0.6520;1.3091;
836.1000;0.6504;1.3067;
836.4000;0.6512;1.3018;
836.7000;0.6488;1.2944;
837.0000;0.6488;1.2895;
837.3000;0.6479;1.2870;
837.6000;0.6520;1.2944;
837.9000;0.6488;1.2821;
838.2000;0.6504;1.2870;
838.5000;0.6512;1.2796;
838.8000;0.6536;1.2919;
839.1000;0.6520;1.2919;
839.4000;0.6512;1.2944;
839.7000;0.6504;1.2944;
840.0000;0.6536;1.2895;
840.3000;0.6545;1.2919;
840.6000;0.6520;1.2944;
840.9000;0.6471;1.2796;
841.2000;0.6504;1.2993;
841.5000;0.6488;1.2993;
841.8000;0.6504;1.2993;
842.1000;0.6512;1.3067;
842.4000;0.6479;1.2968;
842.7000;0.6512;1.3067;
843.0000;0.6447;1.2968;
843.3000;0.6561;1.3264;
843.6000;0.6504;1.3116;
843.9000;0.6504;1.3214;
844.2000;0.6504;1.3116;
844.5000;0.6496;1.3042;
844.8000;0.6455;1.2944;
845.1000;0.6463;1.2968;
845.4000;0.6488;1.3067;
845.7000;0.6488;1.3141;
846.0000;0.6504;1.3165;
846.3000;0.6496;1.3116;
846.6000;0.6455;1.3018;
846.9000;0.6528;1.3141;
847.2000;0.6488;1.3042;
847.5000;0.6512;1.3067;
847.8000;0.6496;1.2968;
848.1000;0.6504;1.2895;
848.4000;0.6512;1.2870;
848.7000;0.6479;1.2944;
849.0000;0.6512;1.3165;
849.3000;0.6528;1.3165;
849.6000;0.6496;1.3067;
849.9000;0.6496;1.3067;
850.2000;0.6512;1.3067;
850.5000;0.6512;1.3091;
850.8000;0.6512;1.3141;
851.1000;0.6528;1.3141;
851.4000;0.6520;1.3141;
851.7000;0.6431;1.2845;
852.0000;0.6520;1.2919;
852.3000;0.6504;1.2968;
852.6000;0.6512;1.2919;
852.9000;0.6488;1.2870;
853.2000;0.6504;1.2895;
853.5000;0.6463;1.2796;
853.8000;0.6520;1.2895;
854.1000;0.6471;1.2771;
854.4000;0.6496;1.2919;
854.7000;0.6528;1.2919;
855.0000;0.6496;1.2870;
855.3000;0.6520;1.2919;
855.6000;0.6512;1.2895;
855.9000;0.6479;1.2845;
856.2000;0.6479;1.2919;
856.5000;0.6479;1.2919;
856.8000;0.6479;1.2870;
857.1000;0.6512;1.2944;
857.4000;0.6479;1.2944;
857.7000;0.6398;1.2821;
858.0000;0.6496;1.3116;
858.3000;0.6496;1.3116;
858.6000;0.6585;1.3313;
858.9000;0.6496;1.3042;
859.2000;0.6528;1.3141;
859.5000;0.6488;1.3042;
859.8000;0.6496;1.3067;
860.1000;0.6414;1.2845;
860.4000;0.6496;1.3116;
860.7000;0.6488;1.3091;
861.0000;0.6463;1.3091;
861.3000;0.6479;1.3042;
861.6000;0.6471;1.3042;
861.9000;0.6488;1.3067;
862.2000;0.6536;1.3091;
862.5000;0.6471;1.3018;
862.8000;0.6561;1.3116;
863.1000;0.6496;1.2968;
863.4000;0.6488;1.2895;
863.7000;0.6585;1.3141;
864.0000;0.6488;1.2845;
864.3000;0.6488;1.2821;
864.6000;0.6561;1.3018;
864.9000;0.6496;1.2870;
865.2000;0.6496;1.2895;
865.5000;0.6488;1.2821;
865.8000;0.6512;1.2968;
866.1000;0.6536;1.2993;
866.4000;0.6512;1.2919;
866.7000;0.6504;1.2845;
867.0000;0.6431;1.2771;
867.3000;0.6504;1.2870;
867.6000;0.6496;1.2919;
867.9000;0.6488;1.2968;
868.2000;0.6496;1.2944;
868.5000;0.6504;1.2944;
868.8000;0.6504;1.2968;
869.1000;0.6471;1.3018;
869.4000;0.6561;1.3264;
869.7000;0.6504;1.3165;
870.0000;0.6512;1.3141;
870.3000;0.6504;1.3042;
870.6000;0.6504;1.3018;
870.9000;0.6496;1.2944;
871.2000;0.6504;1.2919;
871.5000;0.6488;1.2870;
871.8000;0.6479;1.2845;
872.1000;0.6528;1.2870;
872.4000;0.6488;1.2796;
872.7000;0.6439;1.2673;
873.0000;0.6488;1.2796;
873.3000;0.6479;1.2722;
873.6000;0.6496;1.2771;
873.9000;0.6488;1.2722;
874.2000;0.6463;1.2722;
874.5000;0.6463;1.2771;
874.8000;0.6471;1.2796;
875.1000;0.6439;1.2771;
875.4000;0.6479;1.2821;
875.7000;0.6504;1.2944;
876.0000;0.6504;1.2968;
876.3000;0.6488;1.2993;
876.6000;0.6488;1.2968;
876.9000;0.6496;1.2968;
877.2000;0.6455;1.2870;
877.5000;0.6504;1.2993;
877.8000;0.6479;1.2968;
878.1000;0.6479;1.3018;
878.4000;0.6488;1.3067;
878.7000;0.6520;1.3165;
879.0000;0.6504;1.3091;
879.3000;0.6488;1.2944;
879.6000;0.6512;1.2919;
879.9000;0.6504;1.2919;
880.2000;0.6569;1.3165;
880.5000;0.6496;1.3067;
880.8000;0.6479;1.3018;
881.1000;0.6496;1.2944;
881.4000;0.6471;1.2944;
881.7000;0.6479;1.2968;
882.0000;0.6479;1.2944;
882.3000;0.6496;1.3018;
882.6000;0.6496;1.3042;
882.9000;0.6496;1.3091;
883.2000;0.6488;1.3067;
883.5000;0.6496;1.3018;
883.8000;0.6545;1.3165;
884.1000;0.6471;1.2993;
884.4000;0.6463;1.2993;
884.7000;0.6455;1.2944;
885.0000;0.6422;1.2796;
885.3000;0.6496;1.2968;
885.6000;0.6422;1.2821;
885.9000;0.6471;1.2968;
886.2000;0.6496;1.3067;
886.5000;0.6479;1.3042;
886.8000;0.6479;1.3067;
887.1000;0.6471;1.3067;
887.4000;0.6471;1.3018;
887.7000;0.6504;1.3018;
888.0000;0.6504;1.2968;
888.3000;0.6471;1.2821;
888.6000;0.6504;1.2895;
888.9000;0.6512;1.2895;
889.2000;0.6504;1.2870;
889.5000;0.6496;1.2821;
889.8000;0.6504;1.2796;
890.1000;0.6504;1.2747;
890.4000;0.6496;1.2648;
890.7000;0.6479;1.2599;
891.0000;0.6504;1.2722;
891.3000;0.6512;1.2747;
891.6000;0.6520;1.2845;
891.9000;0.6504;1.2821;
892.2000;0.6496;1.2895;
892.5000;0.6431;1.2747;
892.8000;0.6488;1.2895;
893.1000;0.6504;1.2919;
893.4000;0.6496;1.2993;
893.7000;0.6479;1.2944;
894.0000;0.6520;1.2993;
894.3000;0.6471;1.2821;
894.6000;0.6471;1.2796;
894.9000;0.6471;1.2771;
895.2000;0.6479;1.2870;
895.5000;0.6463;1.2870;
895.8000;0.6471;1.2919;
896.1000;0.6479;1.2919;
896.4000;0.6488;1.2944;
896.7000;0.6496;1.2968;
897.0000;0.6488;1.2821;
897.3000;0.6479;1.2796;
897.6000;0.6479;1.2919;
897.9000;0.6488;1.2845;
898.2000;0.6488;1.2821;
898.5000;0.6479;1.2895;
898.8000;0.6496;1.2968;
899.1000;0.6471;1.2993;
899.4000;0.6488;1.3018;
899.7000;0.6479;1.3018;
900.0000;0.6431;1.2895;
900.3000;0.6479;1.2968;
900.6000;0.6471;1.2895;
900.9000;0.6488;1.2993;
901.2000;0.6496;1.2919;
901.5000;0.6488;1.2919;
901.8000;0.6479;1.2870;
902.1000;0.6504;1.2845;
902.4000;0.6463;1.2845;
902.7000;0.6479;1.2821;
903.0000;0.6496;1.2870;
903.3000;0.6496;1.2895;
903.6000;0.6463;1.2747;
903.9000;0.6431;1.2747;
904.2000;0.6479;1.2944;
904.5000;0.6504;1.2968;
904.8000;0.6463;1.2895;
905.1000;0.6479;1.3018;
905.4000;0.6471;1.3018;
905.7000;0.6471;1.2993;
906.0000;0.6471;1.2968;
906.3000;0.6463;1.2968;
906.6000;0.6471;1.2968;
906.9000;0.6463;1.3042;
907.2000;0.6488;1.3067;
907.5000;0.6471;1.3067;
907.8000;0.6536;1.3264;
908.1000;0.6479;1.3141;
908.4000;0.6479;1.3165;
908.7000;0.6471;1.3264;
909.0000;0.6479;1.3214;
909.3000;0.6479;1.3165;
909.6000;0.6447;1.3165;
909.9000;0.6471;1.3214;
910.2000;0.6471;1.3116;
910.5000;0.6479;1.3091;
910.8000;0.6471;1.3042;
911.1000;0.6479;1.2968;
911.4000;0.6479;1.2968;
911.7000;0.6479;1.3018;
912.0000;0.6488;1.3116;
912.3000;0.6479;1.3091;
912.6000;0.6479;1.3018;
912.9000;0.6422;1.2870;
913.2000;0.6471;1.2968;
913.5000;0.6488;1.2895;
913.8000;0.6553;1.3067;
914.1000;0.6488;1.2968;
914.4000;0.6479;1.2968;
914.7000;0.6496;1.3018;
915.0000;0.6439;1.2870;
915.3000;0.6479;1.2993;
915.6000;0.6479;1.2895;
915.9000;0.6488;1.2944;
916.2000;0.6471;1.2944;
916.5000;0.6463;1.2944;
916.8000;0.6479;1.3018;
917.1000;0.6479;1.3042;
917.4000;0.6471;1.3091;
917.7000;0.6463;1.3091;
918.0000;0.6488;1.3165;
918.3000;0.6479;1.3067;
918.6000;0.6455;1.2919;
918.9000;0.6471;1.2895;
919.2000;0.6447;1.2845;
919.5000;0.6471;1.2968;
919.8000;0.6463;1.2944;
920.1000;0.6479;1.3067;
920.4000;0.6447;1.2993;
920.7000;0.6463;1.3042;
921.0000;0.6496;1.3141;
921.3000;0.6471;1.2944;
921.6000;0.6488;1.2968;
921.9000;0.6479;1.2895;
922.2000;0.6471;1.2919;
922.5000;0.6463;1.2796;
922.8000;0.6463;1.2771;
923.1000;0.6463;1.2796;
923.4000;0.6479;1.2870;
923.7000;0.6471;1.2771;
924.0000;0.6463;1.2796;
924.3000;0.6504;1.2944;
924.6000;0.6471;1.2821;
924.9000;0.6496;1.2771;
925.2000;0.6455;1.2796;
925.5000;0.6496;1.2895;
925.8000;0.6463;1.2895;
926.1000;0.6471;1.2821;
926.4000;0.6479;1.2870;
926.7000;0.6447;1.2895;
927.0000;0.6463;1.3018;
927.3000;0.6545;1.3190;
927.6000;0.6479;1.3067;
927.9000;0.6471;1.3067;
928.2000;0.6455;1.3091;
928.5000;0.6488;1.3067;
928.8000;0.6471;1.3091;
929.1000;0.6488;1.3091;
929.4000;0.6455;1.3067;
929.7000;0.6471;1.3116;
930.0000;0.6463;1.3018;
930.3000;0.6520;1.3190;
930.6000;0.6479;1.3116;
930.9000;0.6479;1.2993;
931.2000;0.6471;1.2968;
931.5000;0.6455;1.2845;
931.8000;0.6471;1.2796;
932.1000;0.6455;1.2845;
932.4000;0.6463;1.2993;
932.7000;0.6512;1.3116;
933.0000;0.6463;1.3091;
933.3000;0.6463;1.3116;
933.6000;0.6463;1.3091;
933.9000;0.6488;1.3116;
934.2000;0.6439;1.2968;
934.5000;0.6471;1.2944;
934.8000;0.6488;1.3067;
935.1000;0.6504;1.3116;
935.4000;0.6479;1.2968;
935.7000;0.6488;1.3042;
936.0000;0.6463;1.2993;
936.3000;0.6463;1.2993;
936.6000;0.6488;1.3018;
936.9000;0.6479;1.2870;
937.2000;0.6455;1.2821;
937.5000;0.6471;1.2895;
937.8000;0.6463;1.2895;
938.1000;0.6455;1.2870;
938.4000;0.6479;1.2895;
938.7000;0.6471;1.2870;
939.0000;0.6479;1.2845;
939.3000;0.6463;1.2870;
939.6000;0.6390;1.2673;
939.9000;0.6471;1.2895;
940.2000;0.6463;1.2895;
940.5000;0.6479;1.2895;
940.8000;0.6463;1.2870;
941.1000;0.6463;1.3018;
941.4000;0.6463;1.3116;
941.7000;0.6455;1.2968;
942.0000;0.6439;1.2919;
942.3000;0.6455;1.2870;
942.6000;0.6455;1.2870;
942.9000;0.6471;1.2968;
943.2000;0.6471;1.2968;
943.5000;0.6447;1.2993;
943.8000;0.6471;1.2968;
944.1000;0.6455;1.2993;
944.4000;0.6471;1.2944;
944.7000;0.6455;1.2993;
945.0000;0.6463;1.3042;
945.3000;0.6488;1.2944;
945.6000;0.6455;1.2895;
945.9000;0.6455;1.2919;
946.2000;0.6422;1.2895;
946.5000;0.6471;1.2993;
946.8000;0.6463;1.2993;
947.1000;0.6463;1.3116;
947.4000;0.6463;1.3042;
947.7000;0.6471;1.3042;
948.0000;0.6471;1.3067;
948.3000;0.6431;1.2944;
948.6000;0.6439;1.2944;
948.9000;0.6463;1.2944;
949.2000;0.6496;1.2944;
949.5000;0.6479;1.2919;
949.8000;0.6455;1.2895;
950.1000;0.6447;1.2944;
950.4000;0.6447;1.2993;
950.7000;0.6471;1.3018;
951.0000;0.6471;1.2993;
951.3000;0.6463;1.2993;
951.6000;0.6463;1.2821;
951.9000;0.6463;1.2845;
952.2000;0.6512;1.2968;
952.5000;0.6455;1.2870;
952.8000;0.6471;1.2870;
953.1000;0.6414;1.2747;
953.4000;0.6455;1.2895;
953.7000;0.6455;1.2895;
954.0000;0.6447;1.2821;
954.3000;0.6463;1.2870;
954.6000;0.6479;1.3018;
954.9000;0.6463;1.2968;
955.2000;0.6382;1.2698;
955.5000;0.6463;1.2993;
955.8000;0.6463;1.3067;
956.1000;0.6471;1.3042;
956.4000;0.6471;1.3018;
956.7000;0.6479;1.2968;
957.0000;0.6455;1.2944;
957.3000;0.6488;1.3067;
957.6000;0.6463;1.2993;
957.9000;0.6479;1.2993;
958.2000;0.6471;1.2993;
958.5000;0.6512;1.2895;
958.8000;0.6471;1.2821;
959.1000;0.6463;1.2895;
959.4000;0.6455;1.2968;
959.7000;0.6479;1.3018;
960.0000;0.6463;1.3091;
960.3000;0.6471;1.3165;
960.6000;0.6447;1.3042;
960.9000;0.6463;1.3042;
961.2000;0.6463;1.2944;
961.5000;0.6463;1.2944;
961.8000;0.6471;1.2919;
962.1000;0.6471;1.2919;
962.4000;0.6463;1.2944;
962.7000;0.6455;1.3042;
963.0000;0.6447;1.3067;
963.3000;0.6463;1.3165;
963.6000;0.6439;1.3141;
963.9000;0.6439;1.3165;
964.2000;0.6447;1.3091;
964.5000;0.6553;1.3264;
964.8000;0.6463;1.3091;
965.1000;0.6439;1.3067;
965.4000;0.6447;1.3116;
965.7000;0.6447;1.3067;
966.0000;0.6471;1.3018;
966.3000;0.6463;1.2993;
966.6000;0.6463;1.2895;
966.9000;0.6447;1.2821;
967.2000;0.6463;1.2821;
967.5000;0.6471;1.2796;
967.8000;0.6390;1.2722;
968.1000;0.6488;1.2993;
968.4000;0.6479;1.3042;
968.7000;0.6496;1.3067;
969.0000;0.6463;1.2944;
969.3000;0.6463;1.3018;
969.6000;0.6471;1.3042;
969.9000;0.6471;1.3018;
970.2000;0.6488;1.3018;
970.5000;0.6455;1.3018;
970.8000;0.6455;1.2919;
971.1000;0.6390;1.2648;
971.4000;0.6471;1.2845;
971.7000;0.6479;1.2870;
972.0000;0.6488;1.2870;
972.3000;0.6455;1.2895;
972.6000;0.6471;1.2919;
972.9000;0.6471;1.2771;
973.2000;0.6488;1.2796;
973.5000;0.6471;1.2722;
973.8000;0.6463;1.2845;
974.1000;0.6398;1.2698;
974.4000;0.6439;1.2747;
974.7000;0.6488;1.2821;
975.0000;0.6455;1.2796;
975.3000;0.6471;1.2845;
975.6000;0.6455;1.2821;
975.9000;0.6447;1.2919;
976.2000;0.6504;1.3018;
976.5000;0.6455;1.2870;
976.8000;0.6488;1.2895;
977.1000;0.6463;1.2747;
977.4000;0.6463;1.2722;
977.7000;0.6471;1.2796;
978.0000;0.6447;1.2771;
978.3000;0.6455;1.2698;
978.6000;0.6447;1.2722;
978.9000;0.6439;1.2648;
979.2000;0.6431;1.2599;
979.5000;0.6455;1.2624;
979.8000;0.6455;1.2599;
980.1000;0.6463;1.2575;
980.4000;0.6447;1.2624;
980.7000;0.6439;1.2673;
981.0000;0.6455;1.2796;
981.3000;0.6455;1.2870;
981.6000;0.6455;1.2796;
981.9000;0.6471;1.2845;
982.2000;0.6471;1.2796;
982.5000;0.6479;1.2870;
982.8000;0.6463;1.2845;
983.1000;0.6471;1.2845;
983.4000;0.6496;1.2895;
983.7000;0.6455;1.2771;
984.0000;0.6496;1.2845;
984.3000;0.6463;1.2796;
984.6000;0.6561;1.3091;
984.9000;0.6439;1.2673;
985.2000;0.6463;1.2698;
985.5000;0.6455;1.2698;
985.8000;0.6463;1.2771;
986.1000;0.6414;1.2698;
986.4000;0.6463;1.2771;
986.7000;0.6479;1.2870;
987.0000;0.6439;1.2796;
987.3000;0.6471;1.2870;
987.6000;0.6463;1.2845;
987.9000;0.6463;1.2821;
988.2000;0.6447;1.2845;
988.5000;0.6447;1.2845;
988.8000;0.6455;1.2845;
989.1000;0.6455;1.2919;
989.4000;0.6439;1.2895;
989.7000;0.6439;1.2845;
990.0000;0.6439;1.2771;
990.3000;0.6439;1.2771;
990.6000;0.6439;1.2771;
990.9000;0.6463;1.2796;
991.2000;0.6455;1.2870;
991.5000;0.6463;1.2919;
991.8000;0.6463;1.2993;
992.1000;0.6479;1.3018;
992.4000;0.6471;1.2919;
992.7000;0.6488;1.3067;
993.0000;0.6463;1.3018;
993.3000;0.6447;1.3042;
993.6000;0.6463;1.3116;
993.9000;0.6479;1.3264;
994.2000;0.6414;1.3091;
994.5000;0.6455;1.3190;
994.8000;0.6455;1.3214;
995.1000;0.6455;1.3116;
995.4000;0.6463;1.3239;
995.7000;0.6471;1.3190;
996.0000;0.6455;1.3042;
996.3000;0.6455;1.2968;
996.6000;0.6471;1.3042;
996.9000;0.6455;1.2895;
997.2000;0.6455;1.2993;
997.5000;0.6471;1.2993;
997.8000;0.6471;1.2944;
998.1000;0.6455;1.2944;
998.4000;0.6471;1.3067;
998.7000;0.6479;1.3067;
999.0000;0.6471;1.3116;
999.3000;0.6455;1.3091;
999.6000;0.6463;1.3091;
999.9000;0.6447;1.2968;
1000.2000;0.6447;1.2968;
1000.5000;0.6447;1.2895;
1000.8000;0.6455;1.2845;
1001.1000;0.6447;1.2821;
1001.4000;0.6455;1.2821;
1001.7000;0.6439;1.2796;
1002.0000;0.6447;1.2747;
1002.3000;0.6455;1.2845;
1002.6000;0.6439;1.2771;
1002.9000;0.6463;1.2845;
1003.2000;0.6463;1.2993;
1003.5000;0.6447;1.2944;
1003.8000;0.6455;1.2919;
1004.1000;0.6463;1.2944;
1004.4000;0.6463;1.2919;
1004.7000;0.6471;1.2895;
1005.0000;0.6455;1.2895;
1005.3000;0.6447;1.2845;
1005.6000;0.6455;1.2944;
1005.9000;0.6414;1.2821;
1006.2000;0.6455;1.2944;
1006.5000;0.6455;1.2919;
1006.8000;0.6455;1.2968;
1007.1000;0.6479;1.2993;
1007.4000;0.6447;1.2919;
1007.7000;0.6455;1.2919;
1008.0000;0.6447;1.2870;
1008.3000;0.6455;1.2944;
1008.6000;0.6479;1.2993;
1008.9000;0.6365;1.2722;
1009.2000;0.6439;1.2919;
1009.5000;0.6447;1.2919;
1009.8000;0.6463;1.2870;
1010.1000;0.6431;1.2698;
1010.4000;0.6447;1.2796;
1010.7000;0.6431;1.2845;
1011.0000;0.6447;1.2895;
1011.3000;0.6422;1.2771;
1011.6000;0.6447;1.2870;
1011.9000;0.6463;1.2821;
1012.2000;0.6471;1.2919;
1012.5000;0.6471;1.2919;
1012.8000;0.6455;1.2895;
1013.1000;0.6414;1.2747;
1013.4000;0.6536;1.2968;
1013.7000;0.6479;1.2870;
1014.0000;0.6471;1.2895;
1014.3000;0.6439;1.2771;
1014.6000;0.6455;1.2821;
1014.9000;0.6447;1.2870;
1015.2000;0.6488;1.2870;
1015.5000;0.6463;1.2821;
1015.8000;0.6471;1.2944;
1016.1000;0.6447;1.2821;
1016.4000;0.6431;1.2698;
1016.7000;0.6447;1.2698;
1017.0000;0.6447;1.2722;
1017.3000;0.6455;1.2771;
1017.6000;0.6422;1.2673;
1017.9000;0.6455;1.2771;
1018.2000;0.6455;1.2771;
1018.5000;0.6431;1.2796;
1018.8000;0.6463;1.2968;
1019.1000;0.6447;1.2870;
1019.4000;0.6365;1.2673;
1019.7000;0.6455;1.2796;
1020.0000;0.6455;1.2796;
1020.3000;0.6422;1.2698;
1020.6000;0.6431;1.2698;
1020.9000;0.6439;1.2698;
1021.2000;0.6455;1.2771;
1021.5000;0.6422;1.2771;
1021.8000;0.6439;1.2895;
1022.1000;0.6512;1.3067;
1022.4000;0.6455;1.2944;
1022.7000;0.6455;1.2919;
1023.0000;0.6439;1.2845;
1023.3000;0.6431;1.2845;
1023.6000;0.6422;1.2821;
1023.9000;0.6463;1.2944;
1024.2000;0.6455;1.2870;
1024.5000;0.6455;1.2845;
1024.8000;0.6398;1.2821;
1025.1000;0.6447;1.2919;
1025.4000;0.6463;1.2993;
1025.7000;0.6447;1.2944;
1026.0000;0.6439;1.2870;
1026.3000;0.6479;1.3042;
1026.6000;0.6447;1.2944;
1026.9000;0.6422;1.2821;
1027.2000;0.6431;1.2870;
1027.5000;0.6463;1.2919;
1027.8000;0.6455;1.2895;
1028.1000;0.6447;1.2919;
1028.4000;0.6447;1.2919;
1028.7000;0.6447;1.2993;
1029.0000;0.6422;1.2870;
1029.3000;0.6455;1.2895;
1029.6000;0.6447;1.2771;
1029.9000;0.6455;1.2821;
1030.2000;0.6463;1.2845;
1030.5000;0.6447;1.2870;
1030.8000;0.6463;1.2845;
1031.1000;0.6455;1.2796;
1031.4000;0.6479;1.2845;
1031.7000;0.6471;1.2747;
1032.0000;0.6447;1.2722;
1032.3000;0.6439;1.2747;
1032.6000;0.6479;1.2821;
1032.9000;0.6447;1.2722;
1033.2000;0.6439;1.2845;
1033.5000;0.6447;1.2895;
1033.8000;0.6447;1.2771;
1034.1000;0.6455;1.2722;
1034.4000;0.6439;1.2722;
1034.7000;0.6439;1.2771;
1035.0000;0.6479;1.2870;
1035.3000;0.6463;1.2845;
1035.6000;0.6447;1.2845;
1035.9000;0.6455;1.2845;
1036.2000;0.6447;1.2870;
1036.5000;0.6422;1.2870;
1036.8000;0.6463;1.3042;
1037.1000;0.6431;1.2968;
1037.4000;0.6455;1.2993;
1037.7000;0.6447;1.2968;
1038.0000;0.6431;1.2968;
1038.3000;0.6455;1.2968;
1038.6000;0.6455;1.2895;
1038.9000;0.6431;1.2870;
1039.2000;0.6382;1.2722;
1039.5000;0.6439;1.2870;
1039.8000;0.6447;1.2845;
1040.1000;0.6439;1.2698;
1040.4000;0.6455;1.2796;
1040.7000;0.6447;1.2771;
1041.0000;0.6422;1.2722;
1041.3000;0.6455;1.2796;
1041.6000;0.6439;1.2771;
1041.9000;0.6439;1.2796;
1042.2000;0.6439;1.2796;
1042.5000;0.6447;1.2821;
1042.8000;0.6463;1.2870;
1043.1000;0.6455;1.2845;
1043.4000;0.6447;1.2870;
1043.7000;0.6406;1.2771;
1044.0000;0.6447;1.2895;
1044.3000;0.6488;1.3091;
1044.6000;0.6439;1.2870;
1044.9000;0.6447;1.2895;
1045.2000;0.6528;1.3091;
1045.5000;0.6455;1.2870;
1045.8000;0.6455;1.2821;
1046.1000;0.6463;1.2919;
1046.4000;0.6439;1.2870;
1046.7000;0.6471;1.2968;
1047.0000;0.6431;1.2919;
1047.3000;0.6439;1.2895;
1047.6000;0.6439;1.2919;
1047.9000;0.6455;1.2993;
1048.2000;0.6496;1.3141;
1048.5000;0.6463;1.3018;
1048.8000;0.6447;1.3018;
1049.1000;0.6455;1.3042;
1049.4000;0.6447;1.2919;
1049.7000;0.6455;1.2919;
1050.0000;0.6447;1.2993;
1050.3000;0.6488;1.3091;
1050.6000;0.6479;1.3042;
1050.9000;0.6479;1.3018;
1051.2000;0.6479;1.2968;
1051.5000;0.6479;1.2944;
1051.8000;0.6463;1.2919;
1052.1000;0.6455;1.2993;
1052.4000;0.6431;1.2870;
1052.7000;0.6439;1.2968;
1053.0000;0.6447;1.2968;
1053.3000;0.6439;1.2895;
1053.6000;0.6422;1.2821;
1053.9000;0.6439;1.2895;
1054.2000;0.6471;1.2895;
1054.5000;0.6545;1.2968;
1054.8000;0.6439;1.2673;
1055.1000;0.6439;1.2698;
1055.4000;0.6463;1.2870;
1055.7000;0.6439;1.2845;
1056.0000;0.6447;1.2919;
1056.3000;0.6455;1.3018;
1056.6000;0.6422;1.2944;
1056.9000;0.6455;1.3018;
1057.2000;0.6455;1.2944;
1057.5000;0.6406;1.2845;
1057.8000;0.6406;1.2968;
1058.1000;0.6488;1.3165;
1058.4000;0.6447;1.3042;
1058.7000;0.6431;1.3042;
1059.0000;0.6431;1.3091;
1059.3000;0.6439;1.2993;
1059.6000;0.6455;1.3018;
1059.9000;0.6439;1.3091;
1060.2000;0.6439;1.3190;
1060.5000;0.6439;1.3116;
1060.8000;0.6455;1.3067;
1061.1000;0.6504;1.3214;
1061.4000;0.6431;1.3042;
1061.7000;0.6447;1.3042;
1062.0000;0.6463;1.3067;
1062.3000;0.6463;1.3067;
1062.6000;0.6463;1.3116;
1062.9000;0.6463;1.3091;
1063.2000;0.6422;1.2895;
1063.5000;0.6463;1.2747;
1063.8000;0.6447;1.2648;
1064.1000;0.6455;1.2673;
1064.4000;0.6447;1.2648;
1064.7000;0.6455;1.2575;
1065.0000;0.6479;1.2698;
1065.3000;0.6422;1.2599;
1065.6000;0.6447;1.2648;
1065.9000;0.6536;1.2919;
1066.2000;0.6382;1.2624;
1066.5000;0.6431;1.2845;
1066.8000;0.6439;1.2796;
1067.1000;0.6463;1.2870;
1067.4000;0.6455;1.2845;
1067.7000;0.6439;1.2821;
1068.0000;0.6439;1.2895;
1068.3000;0.6471;1.3018;
1068.6000;0.6439;1.2944;
1068.9000;0.6447;1.2968;
1069.2000;0.6439;1.2845;
1069.5000;0.6447;1.2895;
1069.8000;0.6439;1.2895;
1070.1000;0.6455;1.2944;
1070.4000;0.6439;1.3018;
1070.7000;0.6439;1.2870;
1071.0000;0.6447;1.2944;
1071.3000;0.6439;1.2944;
1071.6000;0.6439;1.2919;
1071.9000;0.6439;1.2968;
1072.2000;0.6406;1.2845;
1072.5000;0.6463;1.2944;
1072.8000;0.6406;1.2747;
1073.1000;0.6414;1.2821;
1073.4000;0.6439;1.2821;
1073.7000;0.6479;1.2944;
1074.0000;0.6455;1.2821;
1074.3000;0.6431;1.2771;
1074.6000;0.6439;1.2796;
1074.9000;0.6439;1.2722;
1075.2000;0.6455;1.2870;
1075.5000;0.6455;1.2845;
1075.8000;0.6512;1.3141;
1076.1000;0.6471;1.2968;
1076.4000;0.6414;1.2821;
1076.7000;0.6455;1.2821;
1077.0000;0.6447;1.2821;
1077.3000;0.6447;1.2870;
1077.6000;0.6439;1.2845;
1077.9000;0.6431;1.2747;
1078.2000;0.6463;1.2845;
1078.5000;0.6431;1.2845;
1078.8000;0.6439;1.2944;
1079.1000;0.6414;1.2821;
1079.4000;0.6439;1.2895;
1079.7000;0.6431;1.2870;
1080.0000;0.6431;1.2870;
1080.3000;0.6455;1.2993;
1080.6000;0.6431;1.3116;
1080.9000;0.6447;1.3190;
1081.2000;0.6447;1.3239;
1081.5000;0.6455;1.3239;
1081.8000;0.6447;1.3165;
1082.1000;0.6422;1.3091;
1082.4000;0.6447;1.3067;
1082.7000;0.6455;1.3091;
1083.0000;0.6463;1.3239;
1083.3000;0.6455;1.3141;
1083.6000;0.6455;1.3141;
1083.9000;0.6455;1.3116;
1084.2000;0.6455;1.3165;
1084.5000;0.6439;1.3116;
1084.8000;0.6439;1.3116;
1085.1000;0.6439;1.3116;
1085.4000;0.6447;1.3141;
1085.7000;0.6414;1.3091;
1086.0000;0.6422;1.3042;
1086.3000;0.6431;1.3042;
1086.6000;0.6431;1.3067;
1086.9000;0.6447;1.3141;
1087.2000;0.6471;1.3141;
1087.5000;0.6463;1.3116;
1087.8000;0.6447;1.3091;
1088.1000;0.6365;1.2796;
1088.4000;0.6455;1.2944;
1088.7000;0.6471;1.3067;
1089.0000;0.6439;1.3042;
1089.3000;0.6431;1.2968;
1089.6000;0.6439;1.2968;
1089.9000;0.6447;1.2944;
1090.2000;0.6471;1.3042;
1090.5000;0.6463;1.2993;
1090.8000;0.6365;1.2747;
1091.1000;0.6439;1.2870;
1091.4000;0.6431;1.2845;
1091.7000;0.6455;1.2919;
1092.0000;0.6431;1.2919;
1092.3000;0.6422;1.2895;
1092.6000;0.6447;1.2944;
1092.9000;0.6447;1.2968;
1093.2000;0.6479;1.3018;
1093.5000;0.6422;1.2870;
1093.8000;0.6439;1.2845;
1094.1000;0.6439;1.2870;
1094.4000;0.6455;1.2993;
1094.7000;0.6447;1.3018;
1095.0000;0.6406;1.2895;
1095.3000;0.6382;1.2895;
1095.6000;0.6439;1.2968;
1095.9000;0.6455;1.2993;
1096.2000;0.6439;1.3042;
1096.5000;0.6471;1.3018;
1096.8000;0.6447;1.2993;
1097.1000;0.6431;1.2993;
1097.4000;0.6447;1.3018;
1097.7000;0.6439;1.3018;
1098.0000;0.6447;1.2993;
1098.3000;0.6455;1.3018;
1098.6000;0.6439;1.2968;
1098.9000;0.6439;1.2993;
1099.2000;0.6439;1.3042;
1099.5000;0.6447;1.3116;
1099.8000;0.6431;1.2968;
1100.1000;0.6439;1.2993;
1100.4000;0.6439;1.2993;
1100.7000;0.6439;1.2895;
1101.0000;0.6488;1.2944;
1101.3000;0.6431;1.2771;
1101.6000;0.6422;1.2796;
1101.9000;0.6406;1.2796;
1102.2000;0.6455;1.2845;
1102.5000;0.6431;1.2870;
1102.8000;0.6431;1.2845;
1103.1000;0.6463;1.2919;
1103.4000;0.6455;1.2993;
1103.7000;0.6471;1.3091;
1104.0000;0.6447;1.2919;
1104.3000;0.6439;1.2895;
1104.6000;0.6414;1.2845;
1104.9000;0.6439;1.2895;
1105.2000;0.6447;1.2895;
1105.5000;0.6431;1.2821;
1105.8000;0.6398;1.2673;
1106.1000;0.6398;1.2722;
1106.4000;0.6439;1.2870;
1106.7000;0.6455;1.2968;
1107.0000;0.6447;1.3042;
1107.3000;0.6439;1.3018;
1107.6000;0.6414;1.2895;
1107.9000;0.6439;1.2944;
1108.2000;0.6439;1.2870;
1108.5000;0.6463;1.2944;
1108.8000;0.6463;1.2968;
1109.1000;0.6455;1.2919;
1109.4000;0.6439;1.2944;
1109.7000;0.6447;1.2895;
1110.0000;0.6447;1.2968;
1110.3000;0.6431;1.2870;
1110.6000;0.6463;1.2870;
1110.9000;0.6431;1.2747;
1111.2000;0.6390;1.2673;
1111.5000;0.6422;1.2845;
1111.8000;0.6455;1.2919;
1112.1000;0.6439;1.2870;
1112.4000;0.6414;1.2771;
1112.7000;0.6463;1.2895;
1113.0000;0.6422;1.2870;
1113.3000;0.6447;1.2895;
1113.6000;0.6439;1.2993;
1113.9000;0.6439;1.2993;
1114.2000;0.6545;1.3239;
1114.5000;0.6455;1.2968;
1114.8000;0.6471;1.2944;
1115.1000;0.6455;1.2895;
1115.4000;0.6431;1.2968;
1115.7000;0.6431;1.2944;
1116.0000;0.6447;1.3042;
1116.3000;0.6439;1.2993;
1116.6000;0.6422;1.2993;
1116.9000;0.6414;1.2895;
1117.2000;0.6439;1.2968;
1117.5000;0.6439;1.3042;
1117.8000;0.6447;1.3042;
1118.1000;0.6447;1.3067;
1118.4000;0.6439;1.3141;
1118.7000;0.6455;1.3165;
1119.0000;0.6447;1.3165;
1119.3000;0.6431;1.3165;
1119.6000;0.6447;1.3141;
1119.9000;0.6439;1.3239;
1120.2000;0.6439;1.3239;
1120.5000;0.6439;1.3141;
1120.8000;0.6431;1.3091;
1121.1000;0.6431;1.3116;
1121.4000;0.6439;1.3067;
1121.7000;0.6471;1.3141;
1122.0000;0.6447;1.2968;
1122.3000;0.6439;1.2895;
1122.6000;0.6439;1.2919;
1122.9000;0.6439;1.2870;
1123.2000;0.6431;1.2796;
1123.5000;0.6447;1.2821;
1123.8000;0.6504;1.2968;
1124.1000;0.6447;1.2722;
1124.4000;0.6455;1.2722;
1124.7000;0.6479;1.2796;
1125.0000;0.6455;1.2722;
1125.3000;0.6439;1.2698;
1125.6000;0.6447;1.2747;
1125.9000;0.6479;1.2845;
1126.2000;0.6414;1.2722;
1126.5000;0.6463;1.2895;
1126.8000;0.6431;1.2796;
1127.1000;0.6471;1.2919;
1127.4000;0.6471;1.2895;
1127.7000;0.6431;1.2747;
1128.0000;0.6414;1.2698;
1128.3000;0.6422;1.2771;
1128.6000;0.6422;1.2870;
1128.9000;0.6422;1.2870;
1129.2000;0.6447;1.2919;
1129.5000;0.6414;1.2771;
1129.8000;0.6382;1.2747;
1130.1000;0.6398;1.2796;
1130.4000;0.6439;1.2870;
1130.7000;0.6414;1.2919;
1131.0000;0.6431;1.2944;
1131.3000;0.6447;1.2944;
1131.6000;0.6431;1.2870;
1131.9000;0.6431;1.2895;
1132.2000;0.6439;1.2845;
1132.5000;0.6447;1.2845;
1132.8000;0.6431;1.2968;
1133.1000;0.6447;1.3067;
1133.4000;0.6439;1.3018;
1133.7000;0.6431;1.2993;
1134.0000;0.6463;1.2968;
1134.3000;0.6471;1.3018;
1134.6000;0.6447;1.2895;
1134.9000;0.6439;1.2870;
1135.2000;0.6455;1.2919;
1135.5000;0.6422;1.2845;
1135.8000;0.6406;1.2771;
1136.1000;0.6431;1.2870;
1136.4000;0.6447;1.2993;
1136.7000;0.6414;1.2919;
1137.0000;0.6439;1.2968;
1137.3000;0.6431;1.3018;
1137.6000;0.6439;1.3067;
1137.9000;0.6455;1.3116;
1138.2000;0.6504;1.3214;
1138.5000;0.6422;1.3141;
1138.8000;0.6431;1.3116;
1139.1000;0.6439;1.3141;
1139.4000;0.6422;1.3067;
1139.7000;0.6431;1.3042;
1140.0000;0.6431;1.2993;
1140.3000;0.6431;1.3042;
1140.6000;0.6439;1.3116;
1140.9000;0.6414;1.3067;
1141.2000;0.6374;1.2944;
1141.5000;0.6431;1.3091;
1141.8000;0.6455;1.3141;
1142.1000;0.6422;1.3018;
1142.4000;0.6431;1.2993;
1142.7000;0.6447;1.3116;
1143.0000;0.6431;1.3141;
1143.3000;0.6447;1.3165;
1143.6000;0.6422;1.2993;
1143.9000;0.6471;1.3141;
1144.2000;0.6455;1.3067;
1144.5000;0.6520;1.3239;
1144.8000;0.6422;1.2944;
1145.1000;0.6422;1.2845;
1145.4000;0.6439;1.2944;
1145.7000;0.6431;1.2895;
1146.0000;0.6439;1.3042;
1146.3000;0.6439;1.3018;
1146.6000;0.6455;1.3018;
1146.9000;0.6431;1.2944;
1147.2000;0.6422;1.2968;
1147.5000;0.6439;1.3018;
1147.8000;0.6479;1.2968;
1148.1000;0.6390;1.2747;
1148.4000;0.6447;1.2919;
1148.7000;0.6357;1.2771;
1149.0000;0.6422;1.2919;
1149.3000;0.6431;1.2845;
1149.6000;0.6479;1.3042;
1149.9000;0.6439;1.2944;
1150.2000;0.6447;1.2968;
1150.5000;0.6479;1.3165;
1150.8000;0.6439;1.3018;
1151.1000;0.6447;1.2968;
1151.4000;0.6439;1.2895;
1151.7000;0.6422;1.2796;
1152.0000;0.6447;1.2870;
1152.3000;0.6447;1.2747;
1152.6000;0.6447;1.2771;
1152.9000;0.6431;1.2796;
1153.2000;0.6455;1.2919;
1153.5000;0.6431;1.2821;
1153.8000;0.6496;1.3042;
1154.1000;0.6431;1.2968;
1154.4000;0.6439;1.3042;
1154.7000;0.6447;1.3042;
1155.0000;0.6447;1.3091;
1155.3000;0.6447;1.3042;
1155.6000;0.6431;1.2993;
1155.9000;0.6431;1.3018;
1156.2000;0.6439;1.3018;
1156.5000;0.6374;1.2845;
1156.8000;0.6439;1.3018;
1157.1000;0.6439;1.3018;
1157.4000;0.6447;1.2968;
1157.7000;0.6439;1.3018;
1158.0000;0.6439;1.2919;
1158.3000;0.6447;1.2968;
1158.6000;0.6455;1.3042;
1158.9000;0.6439;1.3165;
1159.2000;0.6414;1.3067;
1159.5000;0.6431;1.3042;
1159.8000;0.6431;1.3042;
1160.1000;0.6447;1.3091;
1160.4000;0.6431;1.3042;
1160.7000;0.6439;1.2968;
1161.0000;0.6455;1.2944;
1161.3000;0.6422;1.2845;
1161.6000;0.6431;1.2845;
1161.9000;0.6455;1.2968;
1162.2000;0.6439;1.2968;
1162.5000;0.6422;1.2993;
1162.8000;0.6422;1.2968;
1163.1000;0.6422;1.3018;
1163.4000;0.6439;1.3067;
1163.7000;0.6431;1.2993;
1164.0000;0.6422;1.2919;
1164.3000;0.6463;1.3042;
1164.6000;0.6406;1.2919;
1164.9000;0.6439;1.2993;
1165.2000;0.6439;1.2919;
1165.5000;0.6431;1.2919;
1165.8000;0.6439;1.2919;
1166.1000;0.6414;1.2919;
1166.4000;0.6431;1.3018;
1166.7000;0.6431;1.2968;
1167.0000;0.6414;1.2944;
1167.3000;0.6439;1.3018;
1167.6000;0.6422;1.2944;
1167.9000;0.6431;1.3018;
1168.2000;0.6414;1.3042;
1168.5000;0.6463;1.3190;
1168.8000;0.6439;1.3141;
1169.1000;0.6431;1.3018;
1169.4000;0.6431;1.2968;
1169.7000;0.6439;1.3091;
1170.0000;0.6422;1.3116;
1170.3000;0.6431;1.3214;
1170.6000;0.6431;1.3239;
1170.9000;0.6406;1.3165;
1171.2000;0.6439;1.3264;
1171.5000;0.6431;1.3264;
1171.8000;0.6455;1.3288;
1172.1000;0.6471;1.3313;
1172.4000;0.6439;1.3264;
1172.7000;0.6422;1.3165;
1173.0000;0.6431;1.3116;
1173.3000;0.6431;1.3165;
1173.6000;0.6414;1.3165;
1173.9000;0.6447;1.3190;
1174.2000;0.6422;1.3165;
1174.5000;0.6422;1.3190;
1174.8000;0.6479;1.3288;
1175.1000;0.6422;1.3141;
1175.4000;0.6414;1.3018;
1175.7000;0.6431;1.3067;
1176.0000;0.6422;1.3018;
1176.3000;0.6439;1.3042;
1176.6000;0.6447;1.3042;
1176.9000;0.6447;1.3042;
1177.2000;0.6431;1.2968;
1177.5000;0.6447;1.3018;
1177.8000;0.6439;1.3018;
1178.1000;0.6447;1.3116;
1178.4000;0.6422;1.3091;
1178.7000;0.6414;1.3042;
1179.0000;0.6479;1.3214;
1179.3000;0.6447;1.3067;
1179.6000;0.6422;1.3042;
1179.9000;0.6447;1.3018;
1180.2000;0.6422;1.3042;
1180.5000;0.6431;1.3067;
1180.8000;0.6439;1.3091;
1181.1000;0.6414;1.3067;
1181.4000;0.6439;1.3067;
1181.7000;0.6455;1.3067;
1182.0000;0.6447;1.2968;
1182.3000;0.6431;1.3067;
1182.6000;0.6439;1.3091;
1182.9000;0.6431;1.3116;
1183.2000;0.6455;1.3165;
1183.5000;0.6431;1.2993;
1183.8000;0.6439;1.2895;
1184.1000;0.6431;1.2722;
1184.4000;0.6422;1.2747;
1184.7000;0.6422;1.2722;
1185.0000;0.6414;1.2747;
1185.3000;0.6439;1.2919;
1185.6000;0.6439;1.2870;
1185.9000;0.6422;1.2771;
1186.2000;0.6439;1.2771;
1186.5000;0.6439;1.2796;
1186.8000;0.6439;1.2845;
1187.1000;0.6463;1.2919;
1187.4000;0.6431;1.2895;
1187.7000;0.6439;1.2944;
1188.0000;0.6431;1.2919;
1188.3000;0.6439;1.3018;
1188.6000;0.6455;1.2993;
1188.9000;0.6447;1.2919;
1189.2000;0.6406;1.2821;
1189.5000;0.6431;1.2919;
1189.8000;0.6488;1.2993;
1190.1000;0.6414;1.2895;
1190.4000;0.6439;1.2993;
1190.7000;0.6439;1.2968;
1191.0000;0.6431;1.2944;
1191.3000;0.6431;1.2895;
1191.6000;0.6398;1.2895;
1191.9000;0.6447;1.3190;
1192.2000;0.6422;1.3141;
1192.5000;0.6422;1.3042;
1192.8000;0.6431;1.3091;
1193.1000;0.6447;1.3165;
1193.4000;0.6431;1.3116;
1193.7000;0.6447;1.3190;
1194.0000;0.6447;1.3116;
1194.3000;0.6431;1.3067;
1194.6000;0.6447;1.3042;
1194.9000;0.6422;1.2993;
1195.2000;0.6431;1.2944;
1195.5000;0.6447;1.2944;
1195.8000;0.6431;1.2895;
1196.1000;0.6431;1.2821;
1196.4000;0.6439;1.2796;
1196.7000;0.6414;1.2747;
1197.0000;0.6422;1.2870;
1197.3000;0.6439;1.2944;
1197.6000;0.6398;1.2968;
1197.9000;0.6431;1.3116;
1198.2000;0.6447;1.2993;
1198.5000;0.6439;1.2944;
1198.8000;0.6431;1.2919;
1199.1000;0.6431;1.2968;
1199.4000;0.6422;1.2919;
1199.7000;0.6431;1.2895;
1200.0000;0.6406;1.2919;
1200.3000;0.6422;1.2968;
1200.6000;0.6455;1.2944;
1200.9000;0.6431;1.2919;
1201.2000;0.6455;1.2870;
1201.5000;0.6398;1.2771;
1201.8000;0.6439;1.2845;
1202.1000;0.6422;1.2796;
1202.4000;0.6431;1.2821;
1202.7000;0.6455;1.2895;
1203.0000;0.6414;1.2870;
1203.3000;0.6455;1.2968;
1203.6000;0.6431;1.2968;
1203.9000;0.6439;1.3042;
1204.2000;0.6422;1.3018;
1204.5000;0.6431;1.3018;
1204.8000;0.6422;1.3067;
1205.1000;0.6431;1.3165;
1205.4000;0.6431;1.3141;
1205.7000;0.6431;1.3190;
1206.0000;0.6439;1.3091;
1206.3000;0.6422;1.3018;
1206.6000;0.6431;1.2944;
1206.9000;0.6406;1.2845;
1207.2000;0.6414;1.2870;
1207.5000;0.6471;1.2993;
1207.8000;0.6447;1.2944;
1208.1000;0.6431;1.2919;
1208.4000;0.6447;1.2870;
1208.7000;0.6431;1.2870;
1209.0000;0.6431;1.2821;
1209.3000;0.6431;1.2919;
1209.6000;0.6431;1.2895;
1209.9000;0.6439;1.2919;
1210.2000;0.6431;1.2968;
1210.5000;0.6431;1.2944;
1210.8000;0.6406;1.2895;
1211.1000;0.6431;1.2919;
1211.4000;0.6422;1.3018;
1211.7000;0.6414;1.3018;
1212.0000;0.6504;1.3288;
1212.3000;0.6431;1.2993;
1212.6000;0.6431;1.3067;
1212.9000;0.6439;1.3067;
1213.2000;0.6439;1.3091;
1213.5000;0.6447;1.3067;
1213.8000;0.6455;1.3214;
1214.1000;0.6447;1.3141;
1214.4000;0.6431;1.3067;
1214.7000;0.6414;1.3091;
1215.0000;0.6414;1.3018;
1215.3000;0.6414;1.3018;
1215.6000;0.6431;1.3067;
1215.9000;0.6422;1.3042;
1216.2000;0.6431;1.3042;
1216.5000;0.6414;1.3018;
1216.8000;0.6422;1.2993;
1217.1000;0.6414;1.3018;
1217.4000;0.6431;1.3067;
1217.7000;0.6422;1.3141;
1218.0000;0.6422;1.3067;
1218.3000;0.6431;1.3042;
1218.6000;0.6398;1.3018;
1218.9000;0.6439;1.3116;
1219.2000;0.6439;1.3067;
1219.5000;0.6414;1.3116;
1219.8000;0.6406;1.3116;
1220.1000;0.6439;1.3190;
1220.4000;0.6439;1.3313;
1220.7000;0.6447;1.3264;
1221.0000;0.6455;1.3190;
1221.3000;0.6439;1.3091;
1221.6000;0.6390;1.3042;
1221.9000;0.6422;1.3141;
1222.2000;0.6439;1.3141;
1222.5000;0.6479;1.3264;
1222.8000;0.6439;1.3067;
1223.1000;0.6439;1.2993;
1223.4000;0.6439;1.2993;
1223.7000;0.6414;1.3018;
1224.0000;0.6431;1.3091;
1224.3000;0.6439;1.3165;
1224.6000;0.6439;1.3042;
1224.9000;0.6447;1.2993;
1225.2000;0.6382;1.2870;
1225.5000;0.6447;1.3067;
1225.8000;0.6447;1.3067;
1226.1000;0.6439;1.3165;
1226.4000;0.6439;1.3116;
1226.7000;0.6528;1.3337;
1227.0000;0.6439;1.3091;
1227.3000;0.6439;1.2993;
1227.6000;0.6439;1.2993;
1227.9000;0.6422;1.2968;
1228.2000;0.6431;1.2993;
1228.5000;0.6414;1.2895;
1228.8000;0.6463;1.2968;
1229.1000;0.6439;1.2968;
1229.4000;0.6439;1.2919;
1229.7000;0.6439;1.3018;
1230.0000;0.6414;1.2993;
1230.3000;0.6447;1.3067;
1230.6000;0.6422;1.3042;
1230.9000;0.6439;1.3042;
1231.2000;0.6447;1.3091;
1231.5000;0.6431;1.3067;
1231.8000;0.6422;1.2993;
1232.1000;0.6422;1.2968;
1232.4000;0.6422;1.3042;
1232.7000;0.6471;1.3116;
1233.0000;0.6439;1.3018;
1233.3000;0.6447;1.3091;
1233.6000;0.6422;1.3067;
1233.9000;0.6447;1.3165;
1234.2000;0.6447;1.3067;
1234.5000;0.6471;1.3067;
1234.8000;0.6439;1.3067;
1235.1000;0.6431;1.3042;
1235.4000;0.6447;1.3042;
1235.7000;0.6439;1.3042;
1236.0000;0.6447;1.3042;
1236.3000;0.6439;1.3067;
1236.6000;0.6414;1.2968;
1236.9000;0.6439;1.3018;
1237.2000;0.6422;1.3091;
1237.5000;0.6439;1.3165;
1237.8000;0.6422;1.3091;
1238.1000;0.6374;1.2895;
1238.4000;0.6439;1.2968;
1238.7000;0.6439;1.2968;
1239.0000;0.6431;1.2968;
1239.3000;0.6439;1.2993;
1239.6000;0.6431;1.2895;
1239.9000;0.6414;1.2845;
1240.2000;0.6422;1.2895;
1240.5000;0.6447;1.3018;
1240.8000;0.6431;1.2968;
1241.1000;0.6439;1.3042;
1241.4000;0.6422;1.3042;
1241.7000;0.6479;1.3165;
1242.0000;0.6431;1.3091;
1242.3000;0.6422;1.3091;
1242.6000;0.6422;1.3116;
1242.9000;0.6431;1.3165;
1243.2000;0.6439;1.3214;
1243.5000;0.6414;1.3239;
1243.8000;0.6439;1.3214;
1244.1000;0.6398;1.3116;
1244.4000;0.6439;1.3239;
1244.7000;0.6431;1.3214;
1245.0000;0.6439;1.3190;
1245.3000;0.6431;1.3116;
1245.6000;0.6422;1.3091;
1245.9000;0.6431;1.3042;
1246.2000;0.6406;1.3018;
1246.5000;0.6431;1.3091;
1246.8000;0.6422;1.3042;
1247.1000;0.6398;1.2968;
1247.4000;0.6390;1.2968;
1247.7000;0.6406;1.3067;
1248.0000;0.6422;1.3091;
1248.3000;0.6463;1.3190;
1248.6000;0.6422;1.3141;
1248.9000;0.6422;1.3190;
1249.2000;0.6374;1.3042;
1249.5000;0.6431;1.3091;
1249.8000;0.6439;1.2968;
1250.1000;0.6431;1.2919;
1250.4000;0.6422;1.2919;
1250.7000;0.6390;1.2993;
1251.0000;0.6431;1.3018;
1251.3000;0.6431;1.2895;
1251.6000;0.6422;1.2895;
1251.9000;0.6447;1.3067;
1252.2000;0.6471;1.3214;
1252.5000;0.6431;1.3190;
1252.8000;0.6439;1.3190;
1253.1000;0.6431;1.3141;
1253.4000;0.6439;1.3165;
1253.7000;0.6431;1.3018;
1254.0000;0.6406;1.2919;
1254.3000;0.6422;1.2870;
1254.6000;0.6422;1.2944;
1254.9000;0.6455;1.2993;
1255.2000;0.6431;1.2919;
1255.5000;0.6439;1.2895;
1255.8000;0.6439;1.2845;
1256.1000;0.6439;1.2870;
1256.4000;0.6439;1.2944;
1256.7000;0.6439;1.2895;
1257.0000;0.6439;1.2968;
1257.3000;0.6390;1.2796;
1257.6000;0.6463;1.2993;
1257.9000;0.6422;1.2895;
1258.2000;0.6382;1.2845;
1258.5000;0.6439;1.3042;
1258.8000;0.6431;1.3091;
1259.1000;0.6471;1.3264;
1259.4000;0.6414;1.3091;
1259.7000;0.6422;1.2968;
1260.0000;0.6431;1.3018;
1260.3000;0.6431;1.3091;
1260.6000;0.6422;1.3116;
1260.9000;0.6447;1.3165;
1261.2000;0.6496;1.3288;
1261.5000;0.6479;1.3288;
1261.8000;0.6422;1.3165;
1262.1000;0.6422;1.3190;
1262.4000;0.6431;1.3165;
1262.7000;0.6414;1.3190;
1263.0000;0.6414;1.3214;
1263.3000;0.6422;1.3190;
1263.6000;0.6439;1.3288;
1263.9000;0.6422;1.3190;
1264.2000;0.6431;1.3264;
1264.5000;0.6406;1.3190;
1264.8000;0.6414;1.3239;
1265.1000;0.6439;1.3214;
1265.4000;0.6431;1.3214;
1265.7000;0.6398;1.3067;
1266.0000;0.6431;1.3190;
1266.3000;0.6447;1.3190;
1266.6000;0.6455;1.3264;
1266.9000;0.6447;1.3264;
1267.2000;0.6398;1.3190;
1267.5000;0.6447;1.3313;
1267.8000;0.6439;1.3288;
1268.1000;0.6414;1.3264;
1268.4000;0.6414;1.3264;
1268.7000;0.6463;1.3313;
1269.0000;0.6422;1.3264;
1269.3000;0.6414;1.3239;
1269.6000;0.6471;1.3411;
1269.9000;0.6439;1.3411;
1270.2000;0.6455;1.3387;
1270.5000;0.6439;1.3362;
1270.8000;0.6431;1.3239;
1271.1000;0.6431;1.3264;
1271.4000;0.6431;1.3337;
1271.7000;0.6398;1.3288;
1272.0000;0.6422;1.3337;
1272.3000;0.6422;1.3214;
1272.6000;0.6439;1.3313;
1272.9000;0.6471;1.3337;
1273.2000;0.6398;1.3165;
1273.5000;0.6414;1.3362;
1273.8000;0.6414;1.3313;
1274.1000;0.6414;1.3313;
1274.4000;0.6398;1.3214;
1274.7000;0.6431;1.3288;
1275.0000;0.6398;1.3239;
1275.3000;0.6398;1.3190;
1275.6000;0.6439;1.3239;
1275.9000;0.6390;1.3091;
1276.2000;0.6431;1.3141;
1276.5000;0.6439;1.3190;
1276.8000;0.6414;1.3042;
1277.1000;0.6422;1.3091;
1277.4000;0.6439;1.3091;
1277.7000;0.6431;1.3067;
1278.0000;0.6488;1.3239;
1278.3000;0.6431;1.3116;
1278.6000;0.6439;1.3116;
1278.9000;0.6488;1.3264;
1279.2000;0.6431;1.3067;
1279.5000;0.6431;1.3042;
1279.8000;0.6439;1.3018;
1280.1000;0.6439;1.3067;
1280.4000;0.6422;1.3116;
1280.7000;0.6455;1.3116;
1281.0000;0.6431;1.3067;
1281.3000;0.6455;1.3018;
1281.6000;0.6439;1.2968;
1281.9000;0.6422;1.3042;
1282.2000;0.6422;1.3042;
1282.5000;0.6439;1.3091;
1282.8000;0.6431;1.3018;
1283.1000;0.6406;1.2895;
1283.4000;0.6431;1.2919;
1283.7000;0.6422;1.2944;
1284.0000;0.6439;1.2919;
1284.3000;0.6439;1.2919;
1284.6000;0.6431;1.2919;
1284.9000;0.6447;1.2968;
1285.2000;0.6422;1.2968;
1285.5000;0.6422;1.3018;
1285.8000;0.6390;1.2944;
1286.1000;0.6414;1.2993;
1286.4000;0.6414;1.2944;
1286.7000;0.6414;1.3018;
1287.0000;0.6422;1.3116;
1287.3000;0.6431;1.3165;
1287.6000;0.6406;1.3091;
1287.9000;0.6471;1.3141;
1288.2000;0.6447;1.3018;
1288.5000;0.6447;1.2919;
1288.8000;0.6439;1.2870;
1289.1000;0.6439;1.2845;
1289.4000;0.6422;1.2845;
1289.7000;0.6561;1.3214;
1290.0000;0.6431;1.2919;
1290.3000;0.6431;1.2968;
1290.6000;0.6422;1.2919;
1290.9000;0.6431;1.2870;
1291.2000;0.6447;1.2944;
1291.5000;0.6422;1.2968;
1291.8000;0.6422;1.2870;
1292.1000;0.6422;1.2722;
1292.4000;0.6431;1.2673;
1292.7000;0.6382;1.2599;
1293.0000;0.6431;1.2747;
1293.3000;0.6414;1.2698;
1293.6000;0.6390;1.2599;
1293.9000;0.6422;1.2722;
1294.2000;0.6439;1.2796;
1294.5000;0.6422;1.2845;
1294.8000;0.6447;1.2895;
1295.1000;0.6406;1.2821;
1295.4000;0.6488;1.3042;
1295.7000;0.6439;1.2919;
1296.0000;0.6431;1.2968;
1296.3000;0.6463;1.3067;
1296.6000;0.6414;1.2919;
1296.9000;0.6422;1.2968;
1297.2000;0.6439;1.3018;
1297.5000;0.6414;1.2993;
1297.8000;0.6422;1.2993;
1298.1000;0.6439;1.3018;
1298.4000;0.6471;1.3091;
1298.7000;0.6422;1.2944;
1299.0000;0.6406;1.2821;
1299.3000;0.6431;1.2870;
1299.6000;0.6431;1.2919;
1299.9000;0.6439;1.2919;
1300.2000;0.6422;1.2747;
1300.5000;0.6422;1.2771;
1300.8000;0.6431;1.2821;
1301.1000;0.6414;1.2895;
1301.4000;0.6422;1.2845;
1301.7000;0.6398;1.2747;
1302.0000;0.6504;1.3067;
1302.3000;0.6439;1.2919;
1302.6000;0.6406;1.2870;
1302.9000;0.6414;1.2968;
1303.2000;0.6431;1.2944;
1303.5000;0.6431;1.2944;
1303.8000;0.6431;1.2895;
1304.1000;0.6471;1.2944;
1304.4000;0.6422;1.2944;
1304.7000;0.6439;1.2919;
1305.0000;0.6447;1.2895;
1305.3000;0.6390;1.2845;
1305.6000;0.6406;1.2870;
1305.9000;0.6439;1.2968;
1306.2000;0.6439;1.3018;
1306.5000;0.6406;1.2944;
1306.8000;0.6406;1.3042;
1307.1000;0.6496;1.3288;
1307.4000;0.6422;1.3165;
1307.7000;0.6414;1.3141;
1308.0000;0.6414;1.3116;
1308.3000;0.6406;1.3042;
1308.6000;0.6333;1.2895;
1308.9000;0.6414;1.3091;
1309.2000;0.6414;1.3067;
1309.5000;0.6422;1.3067;
1309.8000;0.6447;1.3116;
1310.1000;0.6431;1.3141;
1310.4000;0.6406;1.3067;
1310.7000;0.6398;1.2944;
1311.0000;0.6406;1.2968;
1311.3000;0.6414;1.2944;
1311.6000;0.6422;1.2993;
1311.9000;0.6398;1.2919;
1312.2000;0.6422;1.2919;
1312.5000;0.6431;1.2944;
1312.8000;0.6414;1.2993;
1313.1000;0.6431;1.3042;
1313.4000;0.6447;1.3067;
1313.7000;0.6431;1.3141;
1314.0000;0.6431;1.3165;
1314.3000;0.6431;1.3141;
1314.6000;0.6422;1.3141;
1314.9000;0.6455;1.3264;
1315.2000;0.6414;1.3165;
1315.5000;0.6422;1.3190;
1315.8000;0.6422;1.3165;
1316.1000;0.6422;1.3018;
1316.4000;0.6431;1.2944;
1316.7000;0.6414;1.2919;
1317.0000;0.6414;1.2919;
1317.3000;0.6431;1.2968;
1317.6000;0.6439;1.2993;
1317.9000;0.6528;1.3141;
1318.2000;0.6431;1.2895;
1318.5000;0.6431;1.2870;
1318.8000;0.6431;1.2993;
1319.1000;0.6431;1.3018;
1319.4000;0.6471;1.3067;
1319.7000;0.6382;1.2944;
1320.0000;0.6463;1.3116;
1320.3000;0.6431;1.2944;
1320.6000;0.6422;1.2870;
1320.9000;0.6398;1.2771;
1321.2000;0.6341;1.2722;
1321.5000;0.6414;1.2919;
1321.8000;0.6431;1.2993;
1322.1000;0.6431;1.3018;
1322.4000;0.6447;1.3116;
1322.7000;0.6414;1.3116;
1323.0000;0.6398;1.3042;
1323.3000;0.6406;1.2993;
1323.6000;0.6422;1.3042;
1323.9000;0.6439;1.2968;
1324.2000;0.6439;1.2919;
1324.5000;0.6422;1.2895;
1324.8000;0.6431;1.2895;
1325.1000;0.6439;1.2796;
1325.4000;0.6431;1.2747;
1325.7000;0.6422;1.2722;
1326.0000;0.6479;1.3018;
1326.3000;0.6422;1.2895;
1326.6000;0.6406;1.2870;
1326.9000;0.6479;1.3091;
1327.2000;0.6406;1.2968;
1327.5000;0.6414;1.2895;
1327.8000;0.6414;1.2944;
1328.1000;0.6406;1.3018;
1328.4000;0.6431;1.3042;
1328.7000;0.6431;1.2944;
1329.0000;0.6439;1.2870;
1329.3000;0.6439;1.2870;
1329.6000;0.6414;1.2870;
1329.9000;0.6422;1.2968;
1330.2000;0.6422;1.3042;
1330.5000;0.6422;1.3067;
1330.8000;0.6414;1.3067;
1331.1000;0.6422;1.3091;
1331.4000;0.6406;1.3091;
1331.7000;0.6357;1.2796;
1332.0000;0.6414;1.2919;
1332.3000;0.6398;1.2895;
1332.6000;0.6414;1.2944;
1332.9000;0.6431;1.2993;
1333.2000;0.6431;1.2944;
1333.5000;0.6422;1.2919;
1333.8000;0.6406;1.2895;
1334.1000;0.6439;1.2944;
1334.4000;0.6447;1.2944;
1334.7000;0.6431;1.2870;
1335.0000;0.6431;1.2870;
1335.3000;0.6422;1.2919;
1335.6000;0.6439;1.2944;
1335.9000;0.6422;1.2919;
1336.2000;0.6414;1.2845;
1336.5000;0.6414;1.2845;
1336.8000;0.6406;1.2845;
1337.1000;0.6455;1.3018;
1337.4000;0.6422;1.2968;
1337.7000;0.6439;1.2968;
1338.0000;0.6422;1.2944;
1338.3000;0.6422;1.2944;
1338.6000;0.6414;1.2895;
1338.9000;0.6431;1.2870;
1339.2000;0.6431;1.2870;
1339.5000;0.6447;1.2944;
1339.8000;0.6439;1.2993;
1340.1000;0.6422;1.2895;
1340.4000;0.6431;1.3018;
1340.7000;0.6463;1.2993;
1341.0000;0.6422;1.2919;
1341.3000;0.6439;1.3042;
1341.6000;0.6422;1.3116;
1341.9000;0.6455;1.3165;
1342.2000;0.6422;1.3116;
1342.5000;0.6414;1.3116;
1342.8000;0.6398;1.3091;
1343.1000;0.6463;1.3239;
1343.4000;0.6365;1.2919;
1343.7000;0.6431;1.3042;
1344.0000;0.6422;1.3116;
1344.3000;0.6422;1.2968;
1344.6000;0.6422;1.2870;
1344.9000;0.6431;1.2821;
1345.2000;0.6398;1.2648;
1345.5000;0.6422;1.2698;
1345.8000;0.6431;1.2821;
1346.1000;0.6439;1.2870;
1346.4000;0.6406;1.2796;
1346.7000;0.6422;1.2968;
1347.0000;0.6414;1.3067;
1347.3000;0.6414;1.3067;
1347.6000;0.6406;1.3018;
1347.9000;0.6447;1.3116;
1348.2000;0.6414;1.3018;
1348.5000;0.6414;1.2944;
1348.8000;0.6455;1.3018;
1349.1000;0.6414;1.2968;
1349.4000;0.6406;1.3018;
1349.7000;0.6431;1.3091;
1350.0000;0.6431;1.3067;
1350.3000;0.6422;1.3091;
1350.6000;0.6439;1.3042;
1350.9000;0.6447;1.3018;
1351.2000;0.6422;1.3042;
1351.5000;0.6431;1.3116;
1351.8000;0.6463;1.3214;
1352.1000;0.6431;1.3091;
1352.4000;0.6431;1.3042;
1352.7000;0.6431;1.2993;
1353.0000;0.6390;1.2821;
1353.3000;0.6439;1.2895;
1353.6000;0.6422;1.2821;
1353.9000;0.6390;1.2771;
1354.2000;0.6431;1.2944;
1354.5000;0.6431;1.2919;
1354.8000;0.6422;1.2944;
1355.1000;0.6406;1.2968;
1355.4000;0.6414;1.2993;
1355.7000;0.6422;1.3018;
1356.0000;0.6431;1.2993;
1356.3000;0.6422;1.2993;
1356.6000;0.6422;1.2993;
1356.9000;0.6406;1.2944;
1357.2000;0.6422;1.2919;
1357.5000;0.6431;1.2895;
1357.8000;0.6422;1.2870;
1358.1000;0.6422;1.2870;
1358.4000;0.6406;1.2771;
1358.7000;0.6422;1.2796;
1359.0000;0.6382;1.2771;
1359.3000;0.6414;1.2845;
1359.6000;0.6422;1.2870;
1359.9000;0.6536;1.3141;
1360.2000;0.6431;1.2895;
1360.5000;0.6439;1.2919;
1360.8000;0.6422;1.2895;
1361.1000;0.6414;1.2919;
1361.4000;0.6422;1.2919;
1361.7000;0.6422;1.2870;
1362.0000;0.6422;1.2870;
1362.3000;0.6414;1.2870;
1362.6000;0.6422;1.3018;
1362.9000;0.6431;1.3067;
1363.2000;0.6414;1.3042;
1363.5000;0.6414;1.3067;
1363.8000;0.6414;1.3116;
1364.1000;0.6422;1.3067;
1364.4000;0.6422;1.3091;
1364.7000;0.6414;1.3067;
1365.0000;0.6414;1.3067;
1365.3000;0.6479;1.3239;
1365.6000;0.6422;1.3067;
1365.9000;0.6431;1.3091;
1366.2000;0.6422;1.3116;
1366.5000;0.6414;1.3091;
1366.8000;0.6414;1.3067;
1367.1000;0.6439;1.3091;
1367.4000;0.6406;1.2968;
1367.7000;0.6471;1.3116;
1368.0000;0.6414;1.2968;
1368.3000;0.6365;1.2698;
1368.6000;0.6406;1.2771;
1368.9000;0.6357;1.2747;
1369.2000;0.6455;1.2993;
1369.5000;0.6414;1.2993;
1369.8000;0.6431;1.2944;
1370.1000;0.6431;1.2968;
1370.4000;0.6422;1.2968;
1370.7000;0.6414;1.3067;
1371.0000;0.6414;1.2993;
1371.3000;0.6439;1.3116;
1371.6000;0.6357;1.2968;
1371.9000;0.6406;1.2993;
1372.2000;0.6406;1.3042;
1372.5000;0.6422;1.3116;
1372.8000;0.6382;1.3067;
1373.1000;0.6398;1.3091;
1373.4000;0.6414;1.3042;
1373.7000;0.6422;1.2993;
1374.0000;0.6431;1.3190;
1374.3000;0.6406;1.3091;
1374.6000;0.6414;1.3042;
1374.9000;0.6414;1.3042;
1375.2000;0.6390;1.2993;
1375.5000;0.6398;1.3190;
1375.8000;0.6398;1.3214;
1376.1000;0.6422;1.3337;
1376.4000;0.6422;1.3239;
1376.7000;0.6431;1.3288;
1377.0000;0.6422;1.3214;
1377.3000;0.6439;1.3190;
1377.6000;0.6398;1.3116;
1377.9000;0.6422;1.3165;
1378.2000;0.6431;1.3190;
1378.5000;0.6398;1.3067;
1378.8000;0.6414;1.3214;
1379.1000;0.6406;1.3264;
1379.4000;0.6414;1.3288;
1379.7000;0.6431;1.3362;
1380.0000;0.6390;1.3190;
1380.3000;0.6431;1.3141;
1380.6000;0.6439;1.3116;
1380.9000;0.6431;1.3116;
1381.2000;0.6414;1.3116;
1381.5000;0.6463;1.3288;
1381.8000;0.6422;1.3116;
1382.1000;0.6406;1.3067;
1382.4000;0.6431;1.3018;
1382.7000;0.6431;1.3018;
1383.0000;0.6439;1.3141;
1383.3000;0.6422;1.3091;
1383.6000;0.6341;1.2821;
1383.9000;0.6365;1.2870;
1384.2000;0.6406;1.2895;
1384.5000;0.6431;1.3042;
1384.8000;0.6422;1.3042;
1385.1000;0.6414;1.2993;
1385.4000;0.6422;1.2944;
1385.7000;0.6422;1.3018;
1386.0000;0.6414;1.3042;
1386.3000;0.6414;1.3091;
1386.6000;0.6431;1.2993;
1386.9000;0.6447;1.2919;
1387.2000;0.6431;1.2919;
1387.5000;0.6422;1.2919;
1387.8000;0.6422;1.2870;
1388.1000;0.6439;1.2919;
1388.4000;0.6431;1.2845;
1388.7000;0.6422;1.2895;
1389.0000;0.6439;1.2870;
1389.3000;0.6431;1.2870;
1389.6000;0.6422;1.2870;
1389.9000;0.6431;1.2895;
1390.2000;0.6431;1.2845;
1390.5000;0.6422;1.2870;
1390.8000;0.6414;1.2895;
1391.1000;0.6422;1.2870;
1391.4000;0.6406;1.2944;
1391.7000;0.6414;1.2993;
1392.0000;0.6431;1.2944;
1392.3000;0.6414;1.2895;
1392.6000;0.6422;1.2845;
1392.9000;0.6422;1.2796;
1393.2000;0.6422;1.2919;
1393.5000;0.6439;1.2870;
1393.8000;0.6431;1.2870;
1394.1000;0.6414;1.2895;
1394.4000;0.6414;1.2993;
1394.7000;0.6414;1.2993;
1395.0000;0.6406;1.2968;
1395.3000;0.6406;1.2919;
1395.6000;0.6422;1.2919;
1395.9000;0.6431;1.2968;
1396.2000;0.6414;1.2919;
1396.5000;0.6406;1.2870;
1396.8000;0.6422;1.3042;
1397.1000;0.6439;1.3165;
1397.4000;0.6431;1.3067;
1397.7000;0.6431;1.3018;
1398.0000;0.6414;1.3018;
1398.3000;0.6414;1.3042;
1398.6000;0.6414;1.3067;
1398.9000;0.6414;1.3116;
1399.2000;0.6414;1.3165;
1399.5000;0.6422;1.3165;
1399.8000;0.6414;1.3116;
