time/ms;Fluo/V;P700 deltaI/I x10³;
-199.8000;0.5315;1.5893;
-199.5000;0.5307;1.5636;
-199.2000;0.5315;1.5636;
-198.9000;0.5291;1.5589;
-198.6000;0.5307;1.5613;
-198.3000;0.5340;1.5706;
-198.0000;0.5324;1.5683;
-197.7000;0.5324;1.5753;
-197.4000;0.5324;1.5823;
-197.1000;0.5307;1.5800;
-196.8000;0.5332;1.5870;
-196.5000;0.5315;1.5800;
-196.2000;0.5307;1.5847;
-195.9000;0.5258;1.5753;
-195.6000;0.5348;1.5987;
-195.3000;0.5299;1.5870;
-195.0000;0.5299;1.5847;
-194.7000;0.5315;1.5823;
-194.4000;0.5307;1.5800;
-194.1000;0.5315;1.5847;
-193.8000;0.5332;1.5893;
-193.5000;0.5340;1.5847;
-193.2000;0.5332;1.5730;
-192.9000;0.5315;1.5683;
-192.6000;0.5364;1.5847;
-192.3000;0.5307;1.5776;
-192.0000;0.5332;1.5870;
-191.7000;0.5307;1.5870;
-191.4000;0.5324;1.5847;
-191.1000;0.5324;1.5823;
-190.8000;0.5348;1.5917;
-190.5000;0.5307;1.5893;
-190.2000;0.5348;1.5964;
-189.9000;0.5275;1.5776;
-189.6000;0.5315;1.5893;
-189.3000;0.5356;1.5964;
-189.0000;0.5340;1.5893;
-188.7000;0.5201;1.5542;
-188.4000;0.5307;1.5776;
-188.1000;0.5332;1.5776;
-187.8000;0.5291;1.5683;
-187.5000;0.5372;1.5917;
-187.2000;0.5315;1.5753;
-186.9000;0.5299;1.5706;
-186.6000;0.5340;1.5823;
-186.3000;0.5283;1.5659;
-186.0000;0.5299;1.5683;
-185.7000;0.5332;1.5683;
-185.4000;0.5324;1.5730;
-185.1000;0.5315;1.5730;
-184.8000;0.5299;1.5753;
-184.5000;0.5324;1.5730;
-184.2000;0.5283;1.5659;
-183.9000;0.5332;1.5683;
-183.6000;0.5340;1.5730;
-183.3000;0.5315;1.5706;
-183.0000;0.5299;1.5683;
-182.7000;0.5324;1.5636;
-182.4000;0.5299;1.5613;
-182.1000;0.5356;1.5706;
-181.8000;0.5332;1.5566;
-181.5000;0.5340;1.5589;
-181.2000;0.5291;1.5519;
-180.9000;0.5267;1.5542;
-180.6000;0.5324;1.5823;
-180.3000;0.5324;1.5776;
-180.0000;0.5364;1.5893;
-179.7000;0.5332;1.5870;
-179.4000;0.5315;1.5917;
-179.1000;0.5291;1.5917;
-178.8000;0.5307;1.5917;
-178.5000;0.5324;1.5940;
-178.2000;0.5283;1.5706;
-177.9000;0.5307;1.5847;
-177.6000;0.5299;1.5847;
-177.3000;0.5291;1.5800;
-177.0000;0.5291;1.5823;
-176.7000;0.5299;1.5893;
-176.4000;0.5242;1.5800;
-176.1000;0.5242;1.5800;
-175.8000;0.5324;1.5870;
-175.5000;0.5307;1.5870;
-175.2000;0.5332;1.5870;
-174.9000;0.5332;1.5893;
-174.6000;0.5291;1.5823;
-174.3000;0.5307;1.5870;
-174.0000;0.5291;1.5730;
-173.7000;0.5275;1.5659;
-173.4000;0.5340;1.5870;
-173.1000;0.5324;1.5870;
-172.8000;0.5315;1.5870;
-172.5000;0.5291;1.5706;
-172.2000;0.5324;1.5730;
-171.9000;0.5299;1.5706;
-171.6000;0.5332;1.5753;
-171.3000;0.5315;1.5636;
-171.0000;0.5315;1.5753;
-170.7000;0.5299;1.5776;
-170.4000;0.5364;1.5940;
-170.1000;0.5315;1.5776;
-169.8000;0.5315;1.5800;
-169.5000;0.5340;1.5940;
-169.2000;0.5315;1.5870;
-168.9000;0.5299;1.5870;
-168.6000;0.5340;1.5893;
-168.3000;0.5356;1.5940;
-168.0000;0.5372;1.5870;
-167.7000;0.5332;1.5753;
-167.4000;0.5299;1.5706;
-167.1000;0.5413;1.6057;
-166.8000;0.5324;1.5776;
-166.5000;0.5324;1.5706;
-166.2000;0.5324;1.5706;
-165.9000;0.5315;1.5683;
-165.6000;0.5315;1.5636;
-165.3000;0.5324;1.5636;
-165.0000;0.5324;1.5683;
-164.7000;0.5315;1.5776;
-164.4000;0.5315;1.5776;
-164.1000;0.5332;1.5730;
-163.8000;0.5307;1.5659;
-163.5000;0.5364;1.5847;
-163.2000;0.5291;1.5753;
-162.9000;0.5315;1.5870;
-162.6000;0.5299;1.5940;
-162.3000;0.5299;1.5893;
-162.0000;0.5324;1.5940;
-161.7000;0.5299;1.5847;
-161.4000;0.5315;1.5847;
-161.1000;0.5267;1.5730;
-160.8000;0.5340;1.5870;
-160.5000;0.5250;1.5589;
-160.2000;0.5332;1.5683;
-159.9000;0.5332;1.5613;
-159.6000;0.5267;1.5449;
-159.3000;0.5332;1.5636;
-159.0000;0.5324;1.5613;
-158.7000;0.5348;1.5636;
-158.4000;0.5307;1.5566;
-158.1000;0.5258;1.5496;
-157.8000;0.5299;1.5589;
-157.5000;0.5315;1.5636;
-157.2000;0.5250;1.5566;
-156.9000;0.5291;1.5776;
-156.6000;0.5291;1.5706;
-156.3000;0.5299;1.5730;
-156.0000;0.5234;1.5472;
-155.7000;0.5307;1.5636;
-155.4000;0.5324;1.5589;
-155.1000;0.5324;1.5636;
-154.8000;0.5340;1.5613;
-154.5000;0.5307;1.5566;
-154.2000;0.5389;1.5706;
-153.9000;0.5324;1.5519;
-153.6000;0.5340;1.5496;
-153.3000;0.5324;1.5472;
-153.0000;0.5315;1.5519;
-152.7000;0.5364;1.5589;
-152.4000;0.5340;1.5472;
-152.1000;0.5324;1.5496;
-151.8000;0.5315;1.5496;
-151.5000;0.5324;1.5472;
-151.2000;0.5291;1.5449;
-150.9000;0.5315;1.5542;
-150.6000;0.5307;1.5496;
-150.3000;0.5315;1.5542;
-150.0000;0.5324;1.5566;
-149.7000;0.5332;1.5706;
-149.4000;0.5307;1.5659;
-149.1000;0.5324;1.5683;
-148.8000;0.5340;1.5800;
-148.5000;0.5315;1.5753;
-148.2000;0.5364;1.5776;
-147.9000;0.5283;1.5589;
-147.6000;0.5389;1.5800;
-147.3000;0.5356;1.5659;
-147.0000;0.5299;1.5542;
-146.7000;0.5324;1.5589;
-146.4000;0.5324;1.5566;
-146.1000;0.5332;1.5589;
-145.8000;0.5307;1.5589;
-145.5000;0.5275;1.5496;
-145.2000;0.5315;1.5542;
-144.9000;0.5324;1.5542;
-144.6000;0.5340;1.5636;
-144.3000;0.5324;1.5636;
-144.0000;0.5324;1.5613;
-143.7000;0.5315;1.5613;
-143.4000;0.5324;1.5659;
-143.1000;0.5348;1.5730;
-142.8000;0.5315;1.5636;
-142.5000;0.5299;1.5613;
-142.2000;0.5324;1.5730;
-141.9000;0.5291;1.5753;
-141.6000;0.5315;1.5870;
-141.3000;0.5340;1.5987;
-141.0000;0.5307;1.5940;
-140.7000;0.5291;1.5893;
-140.4000;0.5324;1.5940;
-140.1000;0.5340;1.5940;
-139.8000;0.5340;1.5893;
-139.5000;0.5332;1.5917;
-139.2000;0.5324;1.5847;
-138.9000;0.5291;1.5776;
-138.6000;0.5275;1.5776;
-138.3000;0.5324;1.5940;
-138.0000;0.5315;1.5964;
-137.7000;0.5315;1.5917;
-137.4000;0.5283;1.5847;
-137.1000;0.5324;1.5917;
-136.8000;0.5324;1.5893;
-136.5000;0.5258;1.5800;
-136.2000;0.5291;1.5870;
-135.9000;0.5324;1.5870;
-135.6000;0.5324;1.5870;
-135.3000;0.5315;1.5917;
-135.0000;0.5299;1.5870;
-134.7000;0.5299;1.5870;
-134.4000;0.5315;1.5870;
-134.1000;0.5258;1.5730;
-133.8000;0.5315;1.5847;
-133.5000;0.5348;1.5940;
-133.2000;0.5340;1.5987;
-132.9000;0.5340;1.5940;
-132.6000;0.5332;1.5870;
-132.3000;0.5332;1.5964;
-132.0000;0.5332;1.6034;
-131.7000;0.5315;1.5917;
-131.4000;0.5307;1.5893;
-131.1000;0.5307;1.5917;
-130.8000;0.5324;1.5893;
-130.5000;0.5307;1.5847;
-130.2000;0.5307;1.5823;
-129.9000;0.5324;1.5940;
-129.6000;0.5307;1.6010;
-129.3000;0.5324;1.6081;
-129.0000;0.5364;1.6127;
-128.7000;0.5315;1.6010;
-128.4000;0.5307;1.5964;
-128.1000;0.5324;1.5940;
-127.8000;0.5315;1.5893;
-127.5000;0.5324;1.5823;
-127.2000;0.5299;1.5776;
-126.9000;0.5315;1.5823;
-126.6000;0.5324;1.5706;
-126.3000;0.5332;1.5753;
-126.0000;0.5340;1.5730;
-125.7000;0.5340;1.5730;
-125.4000;0.5315;1.5613;
-125.1000;0.5299;1.5566;
-124.8000;0.5291;1.5636;
-124.5000;0.5299;1.5730;
-124.2000;0.5315;1.5776;
-123.9000;0.5299;1.5706;
-123.6000;0.5324;1.5753;
-123.3000;0.5315;1.5730;
-123.0000;0.5258;1.5496;
-122.7000;0.5315;1.5589;
-122.4000;0.5340;1.5683;
-122.1000;0.5307;1.5636;
-121.8000;0.5340;1.5589;
-121.5000;0.5299;1.5542;
-121.2000;0.5332;1.5542;
-120.9000;0.5315;1.5566;
-120.6000;0.5307;1.5589;
-120.3000;0.5307;1.5636;
-120.0000;0.5324;1.5753;
-119.7000;0.5340;1.5893;
-119.4000;0.5291;1.5730;
-119.1000;0.5324;1.5823;
-118.8000;0.5307;1.5823;
-118.5000;0.5307;1.5847;
-118.2000;0.5324;1.5893;
-117.9000;0.5324;1.5987;
-117.6000;0.5405;1.6198;
-117.3000;0.5324;1.5964;
-117.0000;0.5315;1.5893;
-116.7000;0.5315;1.5987;
-116.4000;0.5307;1.5987;
-116.1000;0.5299;1.5847;
-115.8000;0.5283;1.5870;
-115.5000;0.5307;1.5917;
-115.2000;0.5283;1.5893;
-114.9000;0.5275;1.5706;
-114.6000;0.5372;1.5917;
-114.3000;0.5348;1.5823;
-114.0000;0.5332;1.5730;
-113.7000;0.5340;1.5800;
-113.4000;0.5283;1.5776;
-113.1000;0.5315;1.5847;
-112.8000;0.5348;1.5893;
-112.5000;0.5421;1.6034;
-112.2000;0.5250;1.5776;
-111.9000;0.5307;1.5987;
-111.6000;0.5356;1.5987;
-111.3000;0.5291;1.5847;
-111.0000;0.5324;1.5917;
-110.7000;0.5299;1.5847;
-110.4000;0.5324;1.5823;
-110.1000;0.5315;1.5730;
-109.8000;0.5324;1.5683;
-109.5000;0.5315;1.5636;
-109.2000;0.5315;1.5706;
-108.9000;0.5332;1.5823;
-108.6000;0.5315;1.5823;
-108.3000;0.5315;1.5847;
-108.0000;0.5324;1.5964;
-107.7000;0.5324;1.5987;
-107.4000;0.5324;1.5940;
-107.1000;0.5381;1.5987;
-106.8000;0.5332;1.5847;
-106.5000;0.5315;1.5776;
-106.2000;0.5315;1.5800;
-105.9000;0.5340;1.5776;
-105.6000;0.5307;1.5706;
-105.3000;0.5315;1.5730;
-105.0000;0.5324;1.5753;
-104.7000;0.5332;1.5753;
-104.4000;0.5324;1.5776;
-104.1000;0.5332;1.5776;
-103.8000;0.5340;1.5800;
-103.5000;0.5324;1.5730;
-103.2000;0.5324;1.5776;
-102.9000;0.5299;1.5636;
-102.6000;0.5332;1.5613;
-102.3000;0.5324;1.5566;
-102.0000;0.5234;1.5449;
-101.7000;0.5307;1.5659;
-101.4000;0.5324;1.5706;
-101.1000;0.5324;1.5776;
-100.8000;0.5332;1.5800;
-100.5000;0.5299;1.5800;
-100.2000;0.5275;1.5753;
-99.9000;0.5315;1.5823;
-99.6000;0.5315;1.5917;
-99.3000;0.5307;1.5800;
-99.0000;0.5315;1.5917;
-98.7000;0.5315;1.5917;
-98.4000;0.5315;1.5823;
-98.1000;0.5291;1.5847;
-97.8000;0.5307;1.5776;
-97.5000;0.5307;1.5753;
-97.2000;0.5307;1.5706;
-96.9000;0.5324;1.5823;
-96.6000;0.5307;1.5776;
-96.3000;0.5307;1.5776;
-96.0000;0.5315;1.5776;
-95.7000;0.5324;1.5776;
-95.4000;0.5307;1.5847;
-95.1000;0.5315;1.5940;
-94.8000;0.5299;1.5870;
-94.5000;0.5315;1.5823;
-94.2000;0.5299;1.5800;
-93.9000;0.5324;1.5870;
-93.6000;0.5250;1.5659;
-93.3000;0.5307;1.5706;
-93.0000;0.5324;1.5659;
-92.7000;0.5324;1.5800;
-92.4000;0.5315;1.5753;
-92.1000;0.5307;1.5730;
-91.8000;0.5340;1.5776;
-91.5000;0.5315;1.5753;
-91.2000;0.5332;1.5706;
-90.9000;0.5332;1.5776;
-90.6000;0.5340;1.5776;
-90.3000;0.5307;1.5753;
-90.0000;0.5372;1.5870;
-89.7000;0.5258;1.5730;
-89.4000;0.5324;1.5893;
-89.1000;0.5356;1.5987;
-88.8000;0.5315;1.5893;
-88.5000;0.5291;1.5870;
-88.2000;0.5291;1.5870;
-87.9000;0.5340;1.5940;
-87.6000;0.5315;1.5823;
-87.3000;0.5324;1.5800;
-87.0000;0.5332;1.5776;
-86.7000;0.5315;1.5776;
-86.4000;0.5324;1.5823;
-86.1000;0.5324;1.5870;
-85.8000;0.5307;1.5823;
-85.5000;0.5291;1.5753;
-85.2000;0.5315;1.5823;
-84.9000;0.5299;1.5870;
-84.6000;0.5307;1.5870;
-84.3000;0.5315;1.5987;
-84.0000;0.5307;1.5940;
-83.7000;0.5332;1.5940;
-83.4000;0.5324;1.5940;
-83.1000;0.5315;1.5940;
-82.8000;0.5315;1.5964;
-82.5000;0.5324;1.5823;
-82.2000;0.5315;1.5800;
-81.9000;0.5307;1.5870;
-81.6000;0.5324;1.5964;
-81.3000;0.5340;1.6010;
-81.0000;0.5340;1.5964;
-80.7000;0.5332;1.5964;
-80.4000;0.5315;1.5893;
-80.1000;0.5307;1.5870;
-79.8000;0.5307;1.5823;
-79.5000;0.5307;1.5776;
-79.2000;0.5315;1.5776;
-78.9000;0.5332;1.5730;
-78.6000;0.5332;1.5800;
-78.3000;0.5324;1.5917;
-78.0000;0.5275;1.5800;
-77.7000;0.5315;1.5893;
-77.4000;0.5315;1.5893;
-77.1000;0.5324;1.5940;
-76.8000;0.5324;1.5917;
-76.5000;0.5324;1.5893;
-76.2000;0.5315;1.5893;
-75.9000;0.5332;1.5847;
-75.6000;0.5315;1.5800;
-75.3000;0.5381;1.5917;
-75.0000;0.5332;1.5800;
-74.7000;0.5307;1.5776;
-74.4000;0.5307;1.5776;
-74.1000;0.5299;1.5730;
-73.8000;0.5299;1.5823;
-73.5000;0.5307;1.5964;
-73.2000;0.5315;1.5987;
-72.9000;0.5307;1.5917;
-72.6000;0.5242;1.5847;
-72.3000;0.5315;1.5940;
-72.0000;0.5324;1.5940;
-71.7000;0.5332;1.5847;
-71.4000;0.5315;1.5823;
-71.1000;0.5307;1.5847;
-70.8000;0.5315;1.5893;
-70.5000;0.5324;1.5823;
-70.2000;0.5307;1.5800;
-69.9000;0.5258;1.5800;
-69.6000;0.5307;1.5893;
-69.3000;0.5307;1.5870;
-69.0000;0.5324;1.5964;
-68.7000;0.5324;1.5917;
-68.4000;0.5315;1.5823;
-68.1000;0.5340;1.5823;
-67.8000;0.5315;1.5730;
-67.5000;0.5324;1.5823;
-67.2000;0.5324;1.5893;
-66.9000;0.5340;1.5917;
-66.6000;0.5315;1.5917;
-66.3000;0.5283;1.5800;
-66.0000;0.5291;1.5847;
-65.7000;0.5340;1.5964;
-65.4000;0.5324;1.5800;
-65.1000;0.5258;1.5659;
-64.8000;0.5324;1.5800;
-64.5000;0.5324;1.5706;
-64.2000;0.5315;1.5776;
-63.9000;0.5332;1.5847;
-63.6000;0.5307;1.5917;
-63.3000;0.5381;1.6034;
-63.0000;0.5356;1.5964;
-62.7000;0.5307;1.5940;
-62.4000;0.5299;1.5893;
-62.1000;0.5291;1.5847;
-61.8000;0.5307;1.5917;
-61.5000;0.5275;1.5730;
-61.2000;0.5324;1.5847;
-60.9000;0.5307;1.5847;
-60.6000;0.5315;1.5940;
-60.3000;0.5315;1.6010;
-60.0000;0.5324;1.6010;
-59.7000;0.5307;1.6057;
-59.4000;0.5307;1.6081;
-59.1000;0.5307;1.6104;
-58.8000;0.5307;1.6104;
-58.5000;0.5315;1.6081;
-58.2000;0.5291;1.5964;
-57.9000;0.5324;1.6104;
-57.6000;0.5324;1.6081;
-57.3000;0.5307;1.6081;
-57.0000;0.5348;1.6151;
-56.7000;0.5324;1.6127;
-56.4000;0.5315;1.6174;
-56.1000;0.5324;1.6151;
-55.8000;0.5364;1.6174;
-55.5000;0.5332;1.6127;
-55.2000;0.5332;1.6081;
-54.9000;0.5283;1.6081;
-54.6000;0.5307;1.6151;
-54.3000;0.5324;1.6174;
-54.0000;0.5315;1.6057;
-53.7000;0.5324;1.6034;
-53.4000;0.5315;1.5917;
-53.1000;0.5315;1.5893;
-52.8000;0.5340;1.5917;
-52.5000;0.5307;1.5847;
-52.2000;0.5324;1.5940;
-51.9000;0.5332;1.5940;
-51.6000;0.5315;1.5893;
-51.3000;0.5283;1.5776;
-51.0000;0.5315;1.5917;
-50.7000;0.5299;1.5917;
-50.4000;0.5307;1.6010;
-50.1000;0.5340;1.6081;
-49.8000;0.5275;1.5940;
-49.5000;0.5324;1.5987;
-49.2000;0.5315;1.5893;
-48.9000;0.5332;1.5940;
-48.6000;0.5372;1.6010;
-48.3000;0.5307;1.5893;
-48.0000;0.5340;1.5964;
-47.7000;0.5332;1.5870;
-47.4000;0.5315;1.5870;
-47.1000;0.5315;1.5964;
-46.8000;0.5340;1.6057;
-46.5000;0.5275;1.5917;
-46.2000;0.5332;1.6057;
-45.9000;0.5324;1.6057;
-45.6000;0.5324;1.6057;
-45.3000;0.5340;1.6034;
-45.0000;0.5324;1.6057;
-44.7000;0.5324;1.5964;
-44.4000;0.5242;1.5753;
-44.1000;0.5315;1.5847;
-43.8000;0.5315;1.5893;
-43.5000;0.5291;1.5847;
-43.2000;0.5299;1.5800;
-42.9000;0.5307;1.5800;
-42.6000;0.5315;1.5800;
-42.3000;0.5291;1.5636;
-42.0000;0.5299;1.5636;
-41.7000;0.5332;1.5730;
-41.4000;0.5332;1.5847;
-41.1000;0.5356;1.5847;
-40.8000;0.5315;1.5800;
-40.5000;0.5307;1.5800;
-40.2000;0.5324;1.5893;
-39.9000;0.5315;1.5940;
-39.6000;0.5307;1.5870;
-39.3000;0.5283;1.5823;
-39.0000;0.5307;1.5917;
-38.7000;0.5315;1.5964;
-38.4000;0.5324;1.6010;
-38.1000;0.5421;1.6127;
-37.8000;0.5324;1.5940;
-37.5000;0.5340;1.5964;
-37.2000;0.5324;1.5917;
-36.9000;0.5315;1.5917;
-36.6000;0.5332;1.5917;
-36.3000;0.5332;1.5940;
-36.0000;0.5315;1.5987;
-35.7000;0.5340;1.5917;
-35.4000;0.5324;1.5964;
-35.1000;0.5299;1.5847;
-34.8000;0.5315;1.5870;
-34.5000;0.5315;1.5917;
-34.2000;0.5315;1.5847;
-33.9000;0.5332;1.5847;
-33.6000;0.5332;1.5800;
-33.3000;0.5340;1.5800;
-33.0000;0.5324;1.5589;
-32.7000;0.5332;1.5753;
-32.4000;0.5332;1.5823;
-32.1000;0.5324;1.5917;
-31.8000;0.5307;1.5940;
-31.5000;0.5315;1.5940;
-31.2000;0.5324;1.6010;
-30.9000;0.5307;1.5964;
-30.6000;0.5307;1.5940;
-30.3000;0.5315;1.5987;
-30.0000;0.5315;1.6010;
-29.7000;0.5332;1.6010;
-29.4000;0.5372;1.6081;
-29.1000;0.5307;1.5870;
-28.8000;0.5315;1.5893;
-28.5000;0.5299;1.5800;
-28.2000;0.5299;1.5800;
-27.9000;0.5299;1.5823;
-27.6000;0.5332;1.5940;
-27.3000;0.5324;1.5987;
-27.0000;0.5340;1.6010;
-26.7000;0.5299;1.5940;
-26.4000;0.5315;1.6010;
-26.1000;0.5307;1.5987;
-25.8000;0.5372;1.6057;
-25.5000;0.5315;1.5893;
-25.2000;0.5307;1.5917;
-24.9000;0.5324;1.5964;
-24.6000;0.5340;1.6174;
-24.3000;0.5275;1.6010;
-24.0000;0.5299;1.6010;
-23.7000;0.5234;1.5870;
-23.4000;0.5307;1.5964;
-23.1000;0.5291;1.6010;
-22.8000;0.5299;1.6081;
-22.5000;0.5381;1.6268;
-22.2000;0.5324;1.6174;
-21.9000;0.5307;1.6151;
-21.6000;0.5307;1.6081;
-21.3000;0.5332;1.6104;
-21.0000;0.5299;1.6057;
-20.7000;0.5324;1.6057;
-20.4000;0.5315;1.6034;
-20.1000;0.5332;1.6057;
-19.8000;0.5324;1.5987;
-19.5000;0.5299;1.5870;
-19.2000;0.5307;1.5847;
-18.9000;0.5258;1.5823;
-18.6000;0.5332;1.5987;
-18.3000;0.5307;1.6010;
-18.0000;0.5307;1.5964;
-17.7000;0.5340;1.6057;
-17.4000;0.5307;1.5940;
-17.1000;0.5397;1.6104;
-16.8000;0.5299;1.5964;
-16.5000;0.5307;1.5917;
-16.2000;0.5332;1.5964;
-15.9000;0.5332;1.5940;
-15.6000;0.5307;1.5964;
-15.3000;0.5324;1.6010;
-15.0000;0.5307;1.5940;
-14.7000;0.5218;1.5706;
-14.4000;0.5315;1.5893;
-14.1000;0.5324;1.5823;
-13.8000;0.5307;1.5800;
-13.5000;0.5315;1.5847;
-13.2000;0.5315;1.5870;
-12.9000;0.5307;1.5964;
-12.6000;0.5291;1.5847;
-12.3000;0.5315;1.5940;
-12.0000;0.5315;1.5917;
-11.7000;0.5291;1.5870;
-11.4000;0.5307;1.5964;
-11.1000;0.5315;1.5893;
-10.8000;0.5332;1.5800;
-10.5000;0.5315;1.5683;
-10.2000;0.5324;1.5776;
-9.9000;0.5315;1.5823;
-9.6000;0.5332;1.5917;
-9.3000;0.5324;1.5917;
-9.0000;0.5324;1.5823;
-8.7000;0.5324;1.5776;
-8.4000;0.5291;1.5823;
-8.1000;0.5307;1.5776;
-7.8000;0.5315;1.5823;
-7.5000;0.5315;1.5847;
-7.2000;0.5299;1.5823;
-6.9000;0.5324;1.5847;
-6.6000;0.5315;1.5870;
-6.3000;0.5291;1.5847;
-6.0000;0.5332;1.5870;
-5.7000;0.5315;1.5800;
-5.4000;0.5315;1.5776;
-5.1000;0.5307;1.5847;
-4.8000;0.5299;1.5893;
-4.5000;0.5307;1.5870;
-4.2000;0.5307;1.5847;
-3.9000;0.5242;1.5636;
-3.6000;0.5315;1.5847;
-3.3000;0.5324;1.5870;
-3.0000;0.5307;1.5870;
-2.7000;0.5291;1.5823;
-2.4000;0.5307;1.5800;
-2.1000;0.5307;1.5893;
-1.8000;0.5307;1.5917;
-1.5000;0.5291;1.5847;
-1.2000;0.5299;1.5964;
-0.9000;0.5299;1.5987;
-0.6000;0.5315;1.6010;
-0.3000;0.5299;1.6010;
0.0000;0.5299;1.6010;
0.3000;0.5397;1.5940;
0.6000;0.5551;1.6268;
0.9000;0.5747;1.6642;
1.2000;0.5796;1.6877;
1.5000;0.5885;1.7111;
1.8000;0.5975;1.7462;
2.1000;0.6015;1.7743;
2.4000;0.6048;1.7883;
2.7000;0.6081;1.8117;
3.0000;0.6040;1.7977;
3.3000;0.6129;1.8211;
3.6000;0.6170;1.8281;
3.9000;0.6162;1.8234;
4.2000;0.6186;1.8304;
4.5000;0.6219;1.8351;
4.8000;0.6211;1.8398;
5.1000;0.6211;1.8468;
5.4000;0.6243;1.8562;
5.7000;0.6219;1.8609;
6.0000;0.6276;1.8773;
6.3000;0.6292;1.8726;
6.6000;0.6268;1.8679;
6.9000;0.6276;1.8632;
7.2000;0.6276;1.8562;
7.5000;0.6300;1.8609;
7.8000;0.6300;1.8609;
8.1000;0.6300;1.8585;
8.4000;0.6276;1.8538;
8.7000;0.6333;1.8609;
9.0000;0.6309;1.8609;
9.3000;0.6317;1.8585;
9.6000;0.6357;1.8749;
9.9000;0.6382;1.8773;
10.2000;0.6357;1.8702;
10.5000;0.6390;1.8702;
10.8000;0.6398;1.8726;
11.1000;0.6398;1.8702;
11.4000;0.6422;1.8702;
11.7000;0.6374;1.8538;
12.0000;0.6422;1.8609;
12.3000;0.6414;1.8538;
12.6000;0.6431;1.8585;
12.9000;0.6414;1.8632;
13.2000;0.6447;1.8679;
13.5000;0.6447;1.8726;
13.8000;0.6439;1.8609;
14.1000;0.6471;1.8726;
14.4000;0.6455;1.8726;
14.7000;0.6463;1.8843;
15.0000;0.6488;1.8796;
15.3000;0.6488;1.8819;
15.6000;0.6488;1.8866;
15.9000;0.6496;1.8866;
16.2000;0.6488;1.8819;
16.5000;0.6488;1.8819;
16.8000;0.6504;1.8843;
17.1000;0.6553;1.8890;
17.4000;0.6512;1.8819;
17.7000;0.6520;1.8819;
18.0000;0.6520;1.8843;
18.3000;0.6528;1.8819;
18.6000;0.6545;1.8726;
18.9000;0.6536;1.8655;
19.2000;0.6545;1.8773;
19.5000;0.6545;1.8749;
19.8000;0.6545;1.8796;
20.1000;0.6545;1.8796;
20.4000;0.6569;1.8866;
20.7000;0.6610;1.8936;
21.0000;0.6561;1.8773;
21.3000;0.6553;1.8773;
21.6000;0.6561;1.8773;
21.9000;0.6553;1.8655;
22.2000;0.6553;1.8632;
22.5000;0.6585;1.8773;
22.8000;0.6585;1.8796;
23.1000;0.6577;1.8749;
23.4000;0.6610;1.8819;
23.7000;0.6577;1.8702;
24.0000;0.6585;1.8679;
24.3000;0.6577;1.8515;
24.6000;0.6585;1.8749;
24.9000;0.6610;1.8726;
25.2000;0.6642;1.8749;
25.5000;0.6618;1.8773;
25.8000;0.6618;1.8819;
26.1000;0.6618;1.8796;
26.4000;0.6634;1.8726;
26.7000;0.6650;1.8702;
27.0000;0.6610;1.8538;
27.3000;0.6618;1.8515;
27.6000;0.6626;1.8609;
27.9000;0.6610;1.8585;
28.2000;0.6626;1.8679;
28.5000;0.6642;1.8726;
28.8000;0.6659;1.8773;
29.1000;0.6634;1.8796;
29.4000;0.6634;1.8702;
29.7000;0.6642;1.8679;
30.0000;0.6642;1.8726;
30.3000;0.6642;1.8702;
30.6000;0.6650;1.8679;
30.9000;0.6642;1.8796;
31.2000;0.6650;1.8843;
31.5000;0.6667;1.8726;
31.8000;0.6659;1.8702;
32.1000;0.6716;1.8890;
32.4000;0.6724;1.8960;
32.7000;0.6642;1.8702;
33.0000;0.6650;1.8773;
33.3000;0.6659;1.8773;
33.6000;0.6675;1.8773;
33.9000;0.6675;1.8843;
34.2000;0.6691;1.8843;
34.5000;0.6683;1.8749;
34.8000;0.6716;1.8913;
35.1000;0.6683;1.8913;
35.4000;0.6683;1.8913;
35.7000;0.6683;1.8983;
36.0000;0.6659;1.8866;
36.3000;0.6699;1.8890;
36.6000;0.6716;1.8890;
36.9000;0.6691;1.8796;
37.2000;0.6683;1.8726;
37.5000;0.6683;1.8749;
37.8000;0.6772;1.8936;
38.1000;0.6675;1.8655;
38.4000;0.6675;1.8679;
38.7000;0.6650;1.8632;
39.0000;0.6716;1.8773;
39.3000;0.6699;1.8679;
39.6000;0.6699;1.8702;
39.9000;0.6691;1.8655;
40.2000;0.6659;1.8609;
40.5000;0.6691;1.8796;
40.8000;0.6642;1.8585;
41.1000;0.6707;1.8749;
41.4000;0.6683;1.8702;
41.7000;0.6707;1.8749;
42.0000;0.6772;1.8890;
42.3000;0.6724;1.8679;
42.6000;0.6732;1.8702;
42.9000;0.6707;1.8632;
43.2000;0.6634;1.8492;
43.5000;0.6691;1.8679;
43.8000;0.6699;1.8702;
44.1000;0.6724;1.8726;
44.4000;0.6756;1.8843;
44.7000;0.6707;1.8796;
45.0000;0.6707;1.8749;
45.3000;0.6740;1.8749;
45.6000;0.6707;1.8515;
45.9000;0.6732;1.8632;
46.2000;0.6707;1.8468;
46.5000;0.6716;1.8585;
46.8000;0.6716;1.8515;
47.1000;0.6732;1.8609;
47.4000;0.6854;1.8866;
47.7000;0.6699;1.8515;
48.0000;0.6740;1.8609;
48.3000;0.6756;1.8609;
48.6000;0.6748;1.8679;
48.9000;0.6716;1.8632;
49.2000;0.6740;1.8632;
49.5000;0.6764;1.8702;
49.8000;0.6748;1.8609;
50.1000;0.6740;1.8585;
50.4000;0.6797;1.8702;
50.7000;0.6756;1.8632;
51.0000;0.6772;1.8655;
51.3000;0.6748;1.8632;
51.6000;0.6732;1.8609;
51.9000;0.6707;1.8538;
52.2000;0.6756;1.8632;
52.5000;0.6748;1.8562;
52.8000;0.6781;1.8726;
53.1000;0.6732;1.8585;
53.4000;0.6732;1.8538;
53.7000;0.6748;1.8468;
54.0000;0.6748;1.8492;
54.3000;0.6740;1.8562;
54.6000;0.6732;1.8538;
54.9000;0.6756;1.8655;
55.2000;0.6740;1.8702;
55.5000;0.6740;1.8679;
55.8000;0.6756;1.8726;
56.1000;0.6789;1.8773;
56.4000;0.6748;1.8702;
56.7000;0.6764;1.8773;
57.0000;0.6772;1.8726;
57.3000;0.6772;1.8609;
57.6000;0.6789;1.8609;
57.9000;0.6781;1.8585;
58.2000;0.6764;1.8538;
58.5000;0.6772;1.8562;
58.8000;0.6748;1.8562;
59.1000;0.6756;1.8492;
59.4000;0.6781;1.8515;
59.7000;0.6764;1.8492;
60.0000;0.6748;1.8445;
60.3000;0.6781;1.8492;
60.6000;0.6781;1.8492;
60.9000;0.6781;1.8468;
61.2000;0.6756;1.8398;
61.5000;0.6772;1.8281;
61.8000;0.6813;1.8375;
62.1000;0.6764;1.8304;
62.4000;0.6772;1.8258;
62.7000;0.6781;1.8211;
63.0000;0.6772;1.8141;
63.3000;0.6772;1.8187;
63.6000;0.6732;1.8070;
63.9000;0.6821;1.8281;
64.2000;0.6789;1.8281;
64.5000;0.6789;1.8375;
64.8000;0.6805;1.8445;
65.1000;0.6772;1.8468;
65.4000;0.6797;1.8468;
65.7000;0.6781;1.8445;
66.0000;0.6732;1.8445;
66.3000;0.6805;1.8562;
66.6000;0.6772;1.8585;
66.9000;0.6789;1.8585;
67.2000;0.6789;1.8632;
67.5000;0.6781;1.8655;
67.8000;0.6781;1.8726;
68.1000;0.6781;1.8679;
68.4000;0.6797;1.8632;
68.7000;0.6789;1.8585;
69.0000;0.6789;1.8609;
69.3000;0.6797;1.8702;
69.6000;0.6764;1.8609;
69.9000;0.6781;1.8515;
70.2000;0.6781;1.8421;
70.5000;0.6764;1.8351;
70.8000;0.6797;1.8515;
71.1000;0.6821;1.8445;
71.4000;0.6846;1.8421;
71.7000;0.6821;1.8351;
72.0000;0.6797;1.8281;
72.3000;0.6797;1.8211;
72.6000;0.6797;1.8211;
72.9000;0.6781;1.8117;
73.2000;0.6797;1.8234;
73.5000;0.6748;1.8164;
73.8000;0.6797;1.8328;
74.1000;0.6781;1.8281;
74.4000;0.6781;1.8375;
74.7000;0.6764;1.8328;
75.0000;0.6789;1.8468;
75.3000;0.6740;1.8398;
75.6000;0.6797;1.8515;
75.9000;0.6789;1.8655;
76.2000;0.6854;1.8749;
76.5000;0.6797;1.8609;
76.8000;0.6870;1.8819;
77.1000;0.6838;1.8632;
77.4000;0.6805;1.8492;
77.7000;0.6797;1.8562;
78.0000;0.6789;1.8562;
78.3000;0.6805;1.8632;
78.6000;0.6813;1.8609;
78.9000;0.6772;1.8468;
79.2000;0.6789;1.8468;
79.5000;0.6886;1.8749;
79.8000;0.6813;1.8632;
80.1000;0.6813;1.8609;
80.4000;0.6781;1.8445;
80.7000;0.6797;1.8421;
81.0000;0.6838;1.8562;
81.3000;0.6838;1.8562;
81.6000;0.6813;1.8445;
81.9000;0.6781;1.8375;
82.2000;0.6821;1.8328;
82.5000;0.6805;1.8234;
82.8000;0.6805;1.8187;
83.1000;0.6805;1.8164;
83.4000;0.6821;1.8187;
83.7000;0.6829;1.8328;
84.0000;0.6813;1.8281;
84.3000;0.6821;1.8375;
84.6000;0.6805;1.8398;
84.9000;0.6821;1.8328;
85.2000;0.6829;1.8398;
85.5000;0.6813;1.8281;
85.8000;0.6772;1.8258;
86.1000;0.6805;1.8398;
86.4000;0.6797;1.8375;
86.7000;0.6805;1.8398;
87.0000;0.6805;1.8398;
87.3000;0.6813;1.8492;
87.6000;0.6805;1.8468;
87.9000;0.6805;1.8538;
88.2000;0.6772;1.8492;
88.5000;0.6805;1.8515;
88.8000;0.6805;1.8421;
89.1000;0.6813;1.8421;
89.4000;0.6805;1.8304;
89.7000;0.6789;1.8211;
90.0000;0.6797;1.8211;
90.3000;0.6805;1.8304;
90.6000;0.6813;1.8398;
90.9000;0.6821;1.8421;
91.2000;0.6805;1.8304;
91.5000;0.6805;1.8375;
91.8000;0.6797;1.8375;
92.1000;0.6813;1.8375;
92.4000;0.6789;1.8234;
92.7000;0.6805;1.8211;
93.0000;0.6797;1.8211;
93.3000;0.6789;1.8258;
93.6000;0.6813;1.8258;
93.9000;0.6838;1.8304;
94.2000;0.6829;1.8211;
94.5000;0.6813;1.8258;
94.8000;0.6797;1.8281;
95.1000;0.6854;1.8421;
95.4000;0.6821;1.8351;
95.7000;0.6870;1.8445;
96.0000;0.6813;1.8304;
96.3000;0.6838;1.8468;
96.6000;0.6821;1.8351;
96.9000;0.6821;1.8398;
97.2000;0.6919;1.8609;
97.5000;0.6829;1.8351;
97.8000;0.6805;1.8258;
98.1000;0.6805;1.8141;
98.4000;0.6821;1.8187;
98.7000;0.6829;1.8211;
99.0000;0.6838;1.8234;
99.3000;0.6821;1.8187;
99.6000;0.6805;1.8141;
99.9000;0.6838;1.8351;
100.2000;0.6838;1.8351;
100.5000;0.6813;1.8304;
100.8000;0.6813;1.8281;
101.1000;0.6821;1.8375;
101.4000;0.6886;1.8468;
101.7000;0.6838;1.8328;
102.0000;0.6829;1.8375;
102.3000;0.6821;1.8281;
102.6000;0.6846;1.8351;
102.9000;0.6838;1.8375;
103.2000;0.6829;1.8398;
103.5000;0.6813;1.8398;
103.8000;0.6821;1.8351;
104.1000;0.6829;1.8304;
104.4000;0.6829;1.8258;
104.7000;0.6829;1.8258;
105.0000;0.6821;1.8351;
105.3000;0.6846;1.8375;
105.6000;0.6813;1.8304;
105.9000;0.6764;1.8211;
106.2000;0.6813;1.8234;
106.5000;0.6805;1.8258;
106.8000;0.6813;1.8281;
107.1000;0.6829;1.8281;
107.4000;0.6829;1.8304;
107.7000;0.6821;1.8304;
108.0000;0.6886;1.8421;
108.3000;0.6829;1.8304;
108.6000;0.6821;1.8211;
108.9000;0.6748;1.8000;
109.2000;0.6829;1.8047;
109.5000;0.6821;1.8023;
109.8000;0.6895;1.8304;
110.1000;0.6870;1.8328;
110.4000;0.6813;1.8211;
110.7000;0.6829;1.8211;
111.0000;0.6821;1.8141;
111.3000;0.6829;1.8258;
111.6000;0.6829;1.8351;
111.9000;0.6829;1.8398;
112.2000;0.6870;1.8468;
112.5000;0.6838;1.8351;
112.8000;0.6838;1.8421;
113.1000;0.6838;1.8375;
113.4000;0.6821;1.8304;
113.7000;0.6813;1.8304;
114.0000;0.6829;1.8421;
114.3000;0.6870;1.8468;
114.6000;0.6838;1.8398;
114.9000;0.6829;1.8421;
115.2000;0.6919;1.8632;
115.5000;0.6821;1.8398;
115.8000;0.6846;1.8445;
116.1000;0.6829;1.8351;
116.4000;0.6846;1.8375;
116.7000;0.6854;1.8375;
117.0000;0.6862;1.8421;
117.3000;0.6829;1.8375;
117.6000;0.6821;1.8281;
117.9000;0.6813;1.8234;
118.2000;0.6862;1.8351;
118.5000;0.6854;1.8398;
118.8000;0.6846;1.8468;
119.1000;0.6829;1.8445;
119.4000;0.6829;1.8421;
119.7000;0.6862;1.8515;
120.0000;0.6821;1.8421;
120.3000;0.6829;1.8398;
120.6000;0.6829;1.8398;
120.9000;0.6829;1.8304;
121.2000;0.6821;1.8328;
121.5000;0.6813;1.8375;
121.8000;0.6821;1.8492;
122.1000;0.6829;1.8562;
122.4000;0.6838;1.8585;
122.7000;0.6805;1.8492;
123.0000;0.6846;1.8538;
123.3000;0.6829;1.8492;
123.6000;0.6838;1.8538;
123.9000;0.6838;1.8515;
124.2000;0.6846;1.8562;
124.5000;0.6821;1.8468;
124.8000;0.6813;1.8468;
125.1000;0.6829;1.8492;
125.4000;0.6772;1.8468;
125.7000;0.6838;1.8609;
126.0000;0.6846;1.8679;
126.3000;0.6805;1.8538;
126.6000;0.6813;1.8515;
126.9000;0.6829;1.8538;
127.2000;0.6838;1.8562;
127.5000;0.6829;1.8562;
127.8000;0.6813;1.8421;
128.1000;0.6854;1.8468;
128.4000;0.6838;1.8398;
128.7000;0.6829;1.8398;
129.0000;0.6846;1.8304;
129.3000;0.6829;1.8258;
129.6000;0.6838;1.8328;
129.9000;0.6829;1.8304;
130.2000;0.6846;1.8351;
130.5000;0.6829;1.8351;
130.8000;0.6838;1.8328;
131.1000;0.6821;1.8351;
131.4000;0.6813;1.8398;
131.7000;0.6821;1.8328;
132.0000;0.6838;1.8398;
132.3000;0.6838;1.8375;
132.6000;0.6838;1.8375;
132.9000;0.6821;1.8351;
133.2000;0.6797;1.8281;
133.5000;0.6846;1.8351;
133.8000;0.6838;1.8398;
134.1000;0.6829;1.8445;
134.4000;0.6829;1.8445;
134.7000;0.6846;1.8445;
135.0000;0.6854;1.8445;
135.3000;0.6821;1.8398;
135.6000;0.6829;1.8398;
135.9000;0.6821;1.8398;
136.2000;0.6838;1.8421;
136.5000;0.6838;1.8351;
136.8000;0.6846;1.8304;
137.1000;0.6838;1.8258;
137.4000;0.6813;1.8117;
137.7000;0.6838;1.8141;
138.0000;0.6838;1.8070;
138.3000;0.6838;1.8000;
138.6000;0.6846;1.7860;
138.9000;0.6829;1.7789;
139.2000;0.6911;1.7977;
139.5000;0.6838;1.7930;
139.8000;0.6870;1.8023;
140.1000;0.6854;1.8070;
140.4000;0.6935;1.8328;
140.7000;0.6838;1.8094;
141.0000;0.6838;1.8141;
141.3000;0.6911;1.8211;
141.6000;0.6829;1.8094;
141.9000;0.6838;1.8141;
142.2000;0.6870;1.8281;
142.5000;0.6846;1.8375;
142.8000;0.6846;1.8328;
143.1000;0.6838;1.8375;
143.4000;0.6838;1.8421;
143.7000;0.6862;1.8445;
144.0000;0.6862;1.8492;
144.3000;0.6797;1.8328;
144.6000;0.6846;1.8351;
144.9000;0.6829;1.8281;
145.2000;0.6699;1.8000;
145.5000;0.6846;1.8351;
145.8000;0.6838;1.8375;
146.1000;0.6854;1.8398;
146.4000;0.6838;1.8234;
146.7000;0.6829;1.8164;
147.0000;0.6829;1.8234;
147.3000;0.6829;1.8258;
147.6000;0.6838;1.8375;
147.9000;0.6821;1.8398;
148.2000;0.6821;1.8351;
148.5000;0.6846;1.8304;
148.8000;0.6854;1.8351;
149.1000;0.6854;1.8281;
149.4000;0.6740;1.8047;
149.7000;0.6854;1.8258;
150.0000;0.6862;1.8234;
150.3000;0.6846;1.8211;
150.6000;0.6846;1.8211;
150.9000;0.6829;1.8187;
151.2000;0.6846;1.8117;
151.5000;0.6838;1.8164;
151.8000;0.6846;1.8187;
152.1000;0.6838;1.8187;
152.4000;0.6846;1.8187;
152.7000;0.6838;1.8141;
153.0000;0.6838;1.8141;
153.3000;0.6838;1.8094;
153.6000;0.6789;1.7953;
153.9000;0.6846;1.8164;
154.2000;0.6838;1.8047;
154.5000;0.6829;1.8117;
154.8000;0.6838;1.8117;
155.1000;0.6838;1.8164;
155.4000;0.6838;1.8117;
155.7000;0.6838;1.8117;
156.0000;0.6829;1.8141;
156.3000;0.6846;1.8258;
156.6000;0.6846;1.8258;
156.9000;0.6846;1.8351;
157.2000;0.6740;1.8141;
157.5000;0.6838;1.8468;
157.8000;0.6878;1.8468;
158.1000;0.6846;1.8351;
158.4000;0.6846;1.8375;
158.7000;0.6838;1.8351;
159.0000;0.6846;1.8398;
159.3000;0.6846;1.8375;
159.6000;0.6846;1.8304;
159.9000;0.6862;1.8468;
160.2000;0.6862;1.8515;
160.5000;0.6854;1.8468;
160.8000;0.6846;1.8375;
161.1000;0.6829;1.8304;
161.4000;0.6846;1.8328;
161.7000;0.6821;1.8281;
162.0000;0.6838;1.8328;
162.3000;0.6911;1.8468;
162.6000;0.6846;1.8445;
162.9000;0.6862;1.8445;
163.2000;0.6846;1.8375;
163.5000;0.6846;1.8351;
163.8000;0.6854;1.8398;
164.1000;0.6805;1.8258;
164.4000;0.6854;1.8421;
164.7000;0.6838;1.8445;
165.0000;0.6854;1.8421;
165.3000;0.6846;1.8421;
165.6000;0.6846;1.8328;
165.9000;0.6862;1.8281;
166.2000;0.6846;1.8281;
166.5000;0.6846;1.8328;
166.8000;0.6846;1.8328;
167.1000;0.6838;1.8234;
167.4000;0.6838;1.8375;
167.7000;0.6854;1.8375;
168.0000;0.6846;1.8328;
168.3000;0.6805;1.8234;
168.6000;0.6854;1.8304;
168.9000;0.6740;1.8117;
169.2000;0.6862;1.8351;
169.5000;0.6838;1.8281;
169.8000;0.6838;1.8304;
170.1000;0.6886;1.8538;
170.4000;0.6846;1.8515;
170.7000;0.6838;1.8468;
171.0000;0.6846;1.8421;
171.3000;0.6846;1.8468;
171.6000;0.6846;1.8445;
171.9000;0.6862;1.8398;
172.2000;0.6862;1.8328;
172.5000;0.6846;1.8258;
172.8000;0.6829;1.8211;
173.1000;0.6813;1.8211;
173.4000;0.6854;1.8234;
173.7000;0.6813;1.8141;
174.0000;0.6838;1.8094;
174.3000;0.6846;1.8164;
174.6000;0.6838;1.8141;
174.9000;0.6846;1.8187;
175.2000;0.6870;1.8351;
175.5000;0.6862;1.8328;
175.8000;0.6846;1.8281;
176.1000;0.6846;1.8234;
176.4000;0.6846;1.8304;
176.7000;0.6846;1.8304;
177.0000;0.6846;1.8351;
177.3000;0.6846;1.8258;
177.6000;0.6895;1.8375;
177.9000;0.6846;1.8328;
178.2000;0.6846;1.8398;
178.5000;0.6846;1.8398;
178.8000;0.6878;1.8421;
179.1000;0.6838;1.8258;
179.4000;0.6846;1.8258;
179.7000;0.6838;1.8281;
180.0000;0.6838;1.8281;
180.3000;0.6838;1.8258;
180.6000;0.6829;1.8234;
180.9000;0.6854;1.8258;
181.2000;0.6829;1.8281;
181.5000;0.6821;1.8211;
181.8000;0.6846;1.8304;
182.1000;0.6821;1.8281;
182.4000;0.6854;1.8328;
182.7000;0.6838;1.8375;
183.0000;0.6870;1.8421;
183.3000;0.6854;1.8445;
183.6000;0.6862;1.8398;
183.9000;0.6854;1.8398;
184.2000;0.6838;1.8328;
184.5000;0.6846;1.8398;
184.8000;0.6846;1.8281;
185.1000;0.6862;1.8281;
185.4000;0.6838;1.8234;
185.7000;0.6854;1.8351;
186.0000;0.6846;1.8421;
186.3000;0.6838;1.8421;
186.6000;0.6838;1.8445;
186.9000;0.6854;1.8468;
187.2000;0.6838;1.8468;
187.5000;0.6829;1.8515;
187.8000;0.6862;1.8585;
188.1000;0.6821;1.8515;
188.4000;0.6838;1.8538;
188.7000;0.6789;1.8304;
189.0000;0.6854;1.8492;
189.3000;0.6821;1.8375;
189.6000;0.6846;1.8421;
189.9000;0.6838;1.8421;
190.2000;0.6821;1.8328;
190.5000;0.6846;1.8398;
190.8000;0.6862;1.8398;
191.1000;0.6862;1.8468;
191.4000;0.6838;1.8375;
191.7000;0.6813;1.8304;
192.0000;0.6781;1.8258;
192.3000;0.6838;1.8351;
192.6000;0.6829;1.8211;
192.9000;0.6846;1.8281;
193.2000;0.6821;1.8258;
193.5000;0.6903;1.8468;
193.8000;0.6870;1.8375;
194.1000;0.6854;1.8421;
194.4000;0.6854;1.8468;
194.7000;0.6838;1.8445;
195.0000;0.6846;1.8492;
195.3000;0.6846;1.8421;
195.6000;0.6838;1.8304;
195.9000;0.6838;1.8187;
196.2000;0.6846;1.8234;
196.5000;0.6838;1.8328;
196.8000;0.6829;1.8328;
197.1000;0.6862;1.8375;
197.4000;0.6846;1.8375;
197.7000;0.6846;1.8375;
198.0000;0.6829;1.8351;
198.3000;0.6846;1.8375;
198.6000;0.6821;1.8375;
198.9000;0.6870;1.8468;
199.2000;0.6838;1.8492;
199.5000;0.6838;1.8445;
199.8000;0.6854;1.8398;
200.1000;0.6838;1.8421;
200.4000;0.6846;1.8421;
200.7000;0.6838;1.8375;
201.0000;0.6838;1.8468;
201.3000;0.6821;1.8468;
201.6000;0.6838;1.8398;
201.9000;0.6846;1.8421;
202.2000;0.6862;1.8351;
202.5000;0.6829;1.8234;
202.8000;0.6813;1.8187;
203.1000;0.6797;1.8141;
203.4000;0.6846;1.8164;
203.7000;0.6854;1.8047;
204.0000;0.6829;1.8047;
204.3000;0.6829;1.8023;
204.6000;0.6838;1.8023;
204.9000;0.6829;1.8164;
205.2000;0.6862;1.8281;
205.5000;0.6846;1.8304;
205.8000;0.6846;1.8328;
206.1000;0.6846;1.8304;
206.4000;0.6821;1.8141;
206.7000;0.6846;1.8211;
207.0000;0.6854;1.8281;
207.3000;0.6838;1.8234;
207.6000;0.6878;1.8375;
207.9000;0.6829;1.8281;
208.2000;0.6846;1.8375;
208.5000;0.6821;1.8304;
208.8000;0.6813;1.8281;
209.1000;0.6829;1.8281;
209.4000;0.6838;1.8281;
209.7000;0.6829;1.8258;
210.0000;0.6838;1.8304;
210.3000;0.6886;1.8328;
210.6000;0.6805;1.8187;
210.9000;0.6829;1.8187;
211.2000;0.6854;1.8351;
211.5000;0.6838;1.8304;
211.8000;0.6846;1.8234;
212.1000;0.6846;1.8234;
212.4000;0.6829;1.8234;
212.7000;0.6829;1.8258;
213.0000;0.6829;1.8351;
213.3000;0.6805;1.8187;
213.6000;0.6838;1.8211;
213.9000;0.6886;1.8281;
214.2000;0.6838;1.8164;
214.5000;0.6821;1.8187;
214.8000;0.6789;1.8094;
215.1000;0.6838;1.8258;
215.4000;0.6903;1.8351;
215.7000;0.6821;1.8187;
216.0000;0.6829;1.8117;
216.3000;0.6813;1.8211;
216.6000;0.6821;1.8211;
216.9000;0.6821;1.8187;
217.2000;0.6797;1.8211;
217.5000;0.6854;1.8281;
217.8000;0.6854;1.8304;
218.1000;0.6846;1.8304;
218.4000;0.6846;1.8328;
218.7000;0.6846;1.8351;
219.0000;0.6846;1.8304;
219.3000;0.6862;1.8281;
219.6000;0.6821;1.8070;
219.9000;0.6838;1.8117;
220.2000;0.6846;1.8187;
220.5000;0.6846;1.8304;
220.8000;0.6829;1.8234;
221.1000;0.6821;1.8281;
221.4000;0.6846;1.8351;
221.7000;0.6838;1.8258;
222.0000;0.6838;1.8234;
222.3000;0.6829;1.8094;
222.6000;0.6797;1.8023;
222.9000;0.6838;1.8164;
223.2000;0.6846;1.8094;
223.5000;0.6829;1.8094;
223.8000;0.6854;1.8117;
224.1000;0.6935;1.8398;
224.4000;0.6821;1.8234;
224.7000;0.6821;1.8328;
225.0000;0.6829;1.8258;
225.3000;0.6854;1.8234;
225.6000;0.6781;1.8070;
225.9000;0.6846;1.8281;
226.2000;0.6821;1.8281;
226.5000;0.6829;1.8258;
226.8000;0.6846;1.8281;
227.1000;0.6846;1.8234;
227.4000;0.6846;1.8234;
227.7000;0.6838;1.8187;
228.0000;0.6862;1.8258;
228.3000;0.6846;1.8211;
228.6000;0.6805;1.8187;
228.9000;0.6829;1.8234;
229.2000;0.6829;1.8164;
229.5000;0.6854;1.8281;
229.8000;0.6829;1.8211;
230.1000;0.6813;1.8187;
230.4000;0.6821;1.8164;
230.7000;0.6846;1.8164;
231.0000;0.6838;1.8164;
231.3000;0.6862;1.8234;
231.6000;0.6878;1.8187;
231.9000;0.6854;1.8117;
232.2000;0.6838;1.8047;
232.5000;0.6781;1.7930;
232.8000;0.6797;1.7953;
233.1000;0.6821;1.8117;
233.4000;0.6821;1.8164;
233.7000;0.6821;1.8234;
234.0000;0.6870;1.8421;
234.3000;0.6829;1.8211;
234.6000;0.6846;1.8328;
234.9000;0.6821;1.8187;
235.2000;0.6846;1.8234;
235.5000;0.6838;1.8234;
235.8000;0.6854;1.8328;
236.1000;0.6846;1.8351;
236.4000;0.6846;1.8351;
236.7000;0.6854;1.8328;
237.0000;0.6740;1.8047;
237.3000;0.6838;1.8281;
237.6000;0.6829;1.8258;
237.9000;0.6724;1.8094;
238.2000;0.6829;1.8375;
238.5000;0.6797;1.8281;
238.8000;0.6829;1.8375;
239.1000;0.6821;1.8328;
239.4000;0.6854;1.8421;
239.7000;0.6846;1.8421;
240.0000;0.6862;1.8538;
240.3000;0.6838;1.8492;
240.6000;0.6838;1.8492;
240.9000;0.6838;1.8538;
241.2000;0.6854;1.8538;
241.5000;0.6838;1.8468;
241.8000;0.6862;1.8585;
242.1000;0.6854;1.8515;
242.4000;0.6862;1.8515;
242.7000;0.6846;1.8468;
243.0000;0.6870;1.8398;
243.3000;0.6870;1.8281;
243.6000;0.6846;1.8281;
243.9000;0.6821;1.8304;
244.2000;0.6878;1.8328;
244.5000;0.6829;1.8281;
244.8000;0.6789;1.8187;
245.1000;0.6838;1.8258;
245.4000;0.6846;1.8258;
245.7000;0.6829;1.8187;
246.0000;0.6838;1.8304;
246.3000;0.6838;1.8351;
246.6000;0.6829;1.8304;
246.9000;0.6854;1.8375;
247.2000;0.6878;1.8398;
247.5000;0.6854;1.8304;
247.8000;0.6821;1.8258;
248.1000;0.6781;1.8211;
248.4000;0.6838;1.8304;
248.7000;0.6813;1.8211;
249.0000;0.6829;1.8258;
249.3000;0.6838;1.8328;
249.6000;0.6813;1.8304;
249.9000;0.6838;1.8351;
250.2000;0.6821;1.8351;
250.5000;0.6821;1.8398;
250.8000;0.6829;1.8375;
251.1000;0.6846;1.8445;
251.4000;0.6813;1.8398;
251.7000;0.6878;1.8492;
252.0000;0.6813;1.8328;
252.3000;0.6838;1.8445;
252.6000;0.6838;1.8421;
252.9000;0.6838;1.8351;
253.2000;0.6854;1.8328;
253.5000;0.6846;1.8328;
253.8000;0.6829;1.8281;
254.1000;0.6829;1.8328;
254.4000;0.6748;1.8141;
254.7000;0.6805;1.8258;
255.0000;0.6846;1.8398;
255.3000;0.6821;1.8351;
255.6000;0.6829;1.8258;
255.9000;0.6854;1.8328;
256.2000;0.6838;1.8304;
256.5000;0.6821;1.8375;
256.8000;0.6846;1.8421;
257.1000;0.6838;1.8445;
257.4000;0.6829;1.8515;
257.7000;0.6838;1.8468;
258.0000;0.6805;1.8421;
258.3000;0.6829;1.8398;
258.6000;0.6829;1.8445;
258.9000;0.6854;1.8538;
259.2000;0.6821;1.8538;
259.5000;0.6821;1.8421;
259.8000;0.6854;1.8468;
260.1000;0.6838;1.8468;
260.4000;0.6854;1.8515;
260.7000;0.6838;1.8375;
261.0000;0.6821;1.8351;
261.3000;0.6838;1.8468;
261.6000;0.6846;1.8445;
261.9000;0.6838;1.8492;
262.2000;0.6821;1.8445;
262.5000;0.6846;1.8421;
262.8000;0.6829;1.8375;
263.1000;0.6838;1.8328;
263.4000;0.6838;1.8328;
263.7000;0.6838;1.8398;
264.0000;0.6797;1.8281;
264.3000;0.6838;1.8375;
264.6000;0.6829;1.8304;
264.9000;0.6854;1.8234;
265.2000;0.6829;1.8258;
265.5000;0.6895;1.8538;
265.8000;0.6821;1.8281;
266.1000;0.6789;1.8234;
266.4000;0.6821;1.8304;
266.7000;0.6821;1.8304;
267.0000;0.6821;1.8234;
267.3000;0.6829;1.8328;
267.6000;0.6854;1.8445;
267.9000;0.6838;1.8328;
268.2000;0.6829;1.8351;
268.5000;0.6821;1.8304;
268.8000;0.6838;1.8281;
269.1000;0.6838;1.8187;
269.4000;0.6805;1.8141;
269.7000;0.6821;1.8164;
270.0000;0.6821;1.8117;
270.3000;0.6870;1.8328;
270.6000;0.6813;1.8304;
270.9000;0.6813;1.8281;
271.2000;0.6764;1.8211;
271.5000;0.6829;1.8281;
271.8000;0.6862;1.8234;
272.1000;0.6878;1.8281;
272.4000;0.6829;1.8281;
272.7000;0.6895;1.8398;
273.0000;0.6829;1.8234;
273.3000;0.6797;1.8141;
273.6000;0.6846;1.8351;
273.9000;0.6829;1.8328;
274.2000;0.6854;1.8421;
274.5000;0.6829;1.8351;
274.8000;0.6821;1.8281;
275.1000;0.6821;1.8375;
275.4000;0.6838;1.8445;
275.7000;0.6838;1.8351;
276.0000;0.6846;1.8375;
276.3000;0.6821;1.8258;
276.6000;0.6838;1.8258;
276.9000;0.6846;1.8258;
277.2000;0.6829;1.8211;
277.5000;0.6838;1.8328;
277.8000;0.6927;1.8538;
278.1000;0.6846;1.8328;
278.4000;0.6935;1.8445;
278.7000;0.6821;1.8117;
279.0000;0.6829;1.8141;
279.3000;0.6829;1.8187;
279.6000;0.6829;1.8164;
279.9000;0.6813;1.8211;
280.2000;0.6838;1.8187;
280.5000;0.6821;1.8211;
280.8000;0.6756;1.8141;
281.1000;0.6829;1.8281;
281.4000;0.6829;1.8211;
281.7000;0.6821;1.8164;
282.0000;0.6821;1.8094;
282.3000;0.6821;1.8000;
282.6000;0.6821;1.8047;
282.9000;0.6838;1.8141;
283.2000;0.6829;1.8164;
283.5000;0.6813;1.8117;
283.8000;0.6821;1.8141;
284.1000;0.6740;1.7906;
284.4000;0.6846;1.8117;
284.7000;0.6829;1.8000;
285.0000;0.6797;1.7883;
285.3000;0.6813;1.7883;
285.6000;0.6838;1.7836;
285.9000;0.6821;1.7719;
286.2000;0.6829;1.7789;
286.5000;0.6797;1.7836;
286.8000;0.6829;1.7977;
287.1000;0.6829;1.8023;
287.4000;0.6846;1.8070;
287.7000;0.6838;1.8164;
288.0000;0.6838;1.8187;
288.3000;0.6829;1.8117;
288.6000;0.6821;1.8117;
288.9000;0.6813;1.8164;
289.2000;0.6838;1.8234;
289.5000;0.6821;1.8211;
289.8000;0.6789;1.8141;
290.1000;0.6797;1.8047;
290.4000;0.6813;1.8164;
290.7000;0.6797;1.8094;
291.0000;0.6797;1.8094;
291.3000;0.6813;1.7977;
291.6000;0.6829;1.8070;
291.9000;0.6764;1.7836;
292.2000;0.6805;1.7977;
292.5000;0.6821;1.8047;
292.8000;0.6821;1.8047;
293.1000;0.6821;1.8070;
293.4000;0.6805;1.7930;
293.7000;0.6805;1.8000;
294.0000;0.6789;1.8000;
294.3000;0.6748;1.7883;
294.6000;0.6813;1.8070;
294.9000;0.6789;1.8047;
295.2000;0.6797;1.8070;
295.5000;0.6829;1.8164;
295.8000;0.6935;1.8328;
296.1000;0.6895;1.8187;
296.4000;0.6813;1.8023;
296.7000;0.6740;1.7813;
297.0000;0.6821;1.8023;
297.3000;0.6772;1.7953;
297.6000;0.6813;1.7953;
297.9000;0.6829;1.7977;
298.2000;0.6829;1.7906;
298.5000;0.6813;1.7930;
298.8000;0.6829;1.8047;
299.1000;0.6829;1.8094;
299.4000;0.6829;1.8164;
299.7000;0.6821;1.8141;
300.0000;0.6813;1.8117;
300.3000;0.6797;1.8094;
300.6000;0.6813;1.8187;
300.9000;0.6829;1.8164;
301.2000;0.6813;1.8094;
301.5000;0.6821;1.8023;
301.8000;0.6821;1.8047;
302.1000;0.6821;1.8047;
302.4000;0.6838;1.8000;
302.7000;0.6838;1.7953;
303.0000;0.6829;1.8000;
303.3000;0.6854;1.8141;
303.6000;0.6821;1.8164;
303.9000;0.6821;1.8141;
304.2000;0.6821;1.8094;
304.5000;0.6846;1.8141;
304.8000;0.6829;1.8187;
305.1000;0.6805;1.8164;
305.4000;0.6927;1.8421;
305.7000;0.6821;1.8164;
306.0000;0.6805;1.8211;
306.3000;0.6805;1.8187;
306.6000;0.6821;1.8258;
306.9000;0.6789;1.8234;
307.2000;0.6838;1.8375;
307.5000;0.6838;1.8375;
307.8000;0.6821;1.8281;
308.1000;0.6829;1.8258;
308.4000;0.6813;1.8234;
308.7000;0.6829;1.8328;
309.0000;0.6829;1.8328;
309.3000;0.6829;1.8328;
309.6000;0.6829;1.8234;
309.9000;0.6813;1.8164;
310.2000;0.6821;1.8187;
310.5000;0.6854;1.8211;
310.8000;0.6821;1.8070;
311.1000;0.6829;1.8164;
311.4000;0.6772;1.8000;
311.7000;0.6821;1.8117;
312.0000;0.6821;1.8070;
312.3000;0.6829;1.8047;
312.6000;0.6821;1.8000;
312.9000;0.6870;1.8164;
313.2000;0.6821;1.8070;
313.5000;0.6805;1.7977;
313.8000;0.6838;1.7977;
314.1000;0.6838;1.7953;
314.4000;0.6813;1.7930;
314.7000;0.6838;1.8023;
315.0000;0.6813;1.8094;
315.3000;0.6772;1.8070;
315.6000;0.6821;1.8211;
315.9000;0.6821;1.8234;
316.2000;0.6838;1.8234;
316.5000;0.6821;1.8211;
316.8000;0.6829;1.8234;
317.1000;0.6813;1.8187;
317.4000;0.6829;1.8117;
317.7000;0.6764;1.8023;
318.0000;0.6813;1.8187;
318.3000;0.6813;1.8211;
318.6000;0.6821;1.8258;
318.9000;0.6821;1.8281;
319.2000;0.6886;1.8492;
319.5000;0.6805;1.8304;
319.8000;0.6805;1.8304;
320.1000;0.6878;1.8398;
320.4000;0.6829;1.8258;
320.7000;0.6797;1.8258;
321.0000;0.6805;1.8234;
321.3000;0.6781;1.8211;
321.6000;0.6764;1.8117;
321.9000;0.6797;1.8164;
322.2000;0.6805;1.8094;
322.5000;0.6789;1.8023;
322.8000;0.6813;1.8117;
323.1000;0.6821;1.8117;
323.4000;0.6829;1.8211;
323.7000;0.6813;1.8234;
324.0000;0.6813;1.8187;
324.3000;0.6797;1.8234;
324.6000;0.6821;1.8351;
324.9000;0.6829;1.8328;
325.2000;0.6829;1.8445;
325.5000;0.6805;1.8398;
325.8000;0.6813;1.8281;
326.1000;0.6829;1.8258;
326.4000;0.6748;1.8094;
326.7000;0.6789;1.8187;
327.0000;0.6813;1.8281;
327.3000;0.6821;1.8281;
327.6000;0.6838;1.8328;
327.9000;0.6838;1.8328;
328.2000;0.6813;1.8375;
328.5000;0.6813;1.8421;
328.8000;0.6829;1.8375;
329.1000;0.6805;1.8351;
329.4000;0.6789;1.8375;
329.7000;0.6789;1.8375;
330.0000;0.6805;1.8421;
330.3000;0.6829;1.8445;
330.6000;0.6805;1.8304;
330.9000;0.6789;1.8328;
331.2000;0.6789;1.8328;
331.5000;0.6797;1.8304;
331.8000;0.6797;1.8304;
332.1000;0.6797;1.8398;
332.4000;0.6862;1.8492;
332.7000;0.6829;1.8398;
333.0000;0.6821;1.8398;
333.3000;0.6821;1.8421;
333.6000;0.6829;1.8445;
333.9000;0.6821;1.8515;
334.2000;0.6821;1.8538;
334.5000;0.6756;1.8304;
334.8000;0.6813;1.8398;
335.1000;0.6805;1.8304;
335.4000;0.6813;1.8421;
335.7000;0.6797;1.8351;
336.0000;0.6813;1.8468;
336.3000;0.6821;1.8468;
336.6000;0.6846;1.8468;
336.9000;0.6813;1.8398;
337.2000;0.6797;1.8351;
337.5000;0.6829;1.8375;
337.8000;0.6829;1.8304;
338.1000;0.6829;1.8468;
338.4000;0.6805;1.8515;
338.7000;0.6821;1.8515;
339.0000;0.6821;1.8468;
339.3000;0.6829;1.8492;
339.6000;0.6813;1.8538;
339.9000;0.6821;1.8585;
340.2000;0.6797;1.8655;
340.5000;0.6829;1.8632;
340.8000;0.6797;1.8562;
341.1000;0.6789;1.8562;
341.4000;0.6797;1.8585;
341.7000;0.6805;1.8538;
342.0000;0.6797;1.8515;
342.3000;0.6781;1.8421;
342.6000;0.6797;1.8468;
342.9000;0.6846;1.8515;
343.2000;0.6821;1.8538;
343.5000;0.6805;1.8492;
343.8000;0.6813;1.8515;
344.1000;0.6813;1.8492;
344.4000;0.6789;1.8398;
344.7000;0.6878;1.8562;
345.0000;0.6821;1.8375;
345.3000;0.6895;1.8538;
345.6000;0.6813;1.8351;
345.9000;0.6821;1.8492;
346.2000;0.6846;1.8609;
346.5000;0.6748;1.8351;
346.8000;0.6797;1.8562;
347.1000;0.6797;1.8468;
347.4000;0.6756;1.8375;
347.7000;0.6797;1.8492;
348.0000;0.6805;1.8609;
348.3000;0.6821;1.8655;
348.6000;0.6805;1.8632;
348.9000;0.6813;1.8609;
349.2000;0.6805;1.8632;
349.5000;0.6829;1.8655;
349.8000;0.6781;1.8515;
350.1000;0.6781;1.8492;
350.4000;0.6772;1.8468;
350.7000;0.6813;1.8515;
351.0000;0.6813;1.8398;
351.3000;0.6781;1.8351;
351.6000;0.6805;1.8445;
351.9000;0.6862;1.8585;
352.2000;0.6813;1.8398;
352.5000;0.6805;1.8351;
352.8000;0.6797;1.8375;
353.1000;0.6797;1.8421;
353.4000;0.6813;1.8445;
353.7000;0.6789;1.8492;
354.0000;0.6732;1.8421;
354.3000;0.6813;1.8609;
354.6000;0.6789;1.8655;
354.9000;0.6797;1.8632;
355.2000;0.6781;1.8538;
355.5000;0.6789;1.8562;
355.8000;0.6813;1.8538;
356.1000;0.6772;1.8375;
356.4000;0.6789;1.8375;
356.7000;0.6797;1.8351;
357.0000;0.6805;1.8398;
357.3000;0.6797;1.8445;
357.6000;0.6797;1.8281;
357.9000;0.6797;1.8281;
358.2000;0.6813;1.8445;
358.5000;0.6797;1.8538;
358.8000;0.6813;1.8492;
359.1000;0.6797;1.8515;
359.4000;0.6797;1.8609;
359.7000;0.6797;1.8632;
360.0000;0.6813;1.8609;
360.3000;0.6813;1.8562;
360.6000;0.6821;1.8492;
360.9000;0.6838;1.8398;
361.2000;0.6805;1.8375;
361.5000;0.6805;1.8421;
361.8000;0.6805;1.8351;
362.1000;0.6797;1.8351;
362.4000;0.6813;1.8351;
362.7000;0.6821;1.8445;
363.0000;0.6813;1.8468;
363.3000;0.6862;1.8585;
363.6000;0.6829;1.8468;
363.9000;0.6813;1.8421;
364.2000;0.6797;1.8421;
364.5000;0.6821;1.8492;
364.8000;0.6821;1.8468;
365.1000;0.6854;1.8609;
365.4000;0.6813;1.8468;
365.7000;0.6756;1.8351;
366.0000;0.6821;1.8585;
366.3000;0.6813;1.8562;
366.6000;0.6789;1.8492;
366.9000;0.6789;1.8538;
367.2000;0.6821;1.8609;
367.5000;0.6805;1.8632;
367.8000;0.6797;1.8562;
368.1000;0.6813;1.8585;
368.4000;0.6764;1.8538;
368.7000;0.6813;1.8632;
369.0000;0.6805;1.8655;
369.3000;0.6756;1.8585;
369.6000;0.6805;1.8679;
369.9000;0.6821;1.8585;
370.2000;0.6772;1.8538;
370.5000;0.6797;1.8515;
370.8000;0.6813;1.8538;
371.1000;0.6821;1.8585;
371.4000;0.6805;1.8702;
371.7000;0.6797;1.8749;
372.0000;0.6829;1.8866;
372.3000;0.6821;1.8702;
372.6000;0.6797;1.8679;
372.9000;0.6838;1.8726;
373.2000;0.6821;1.8679;
373.5000;0.6789;1.8609;
373.8000;0.6764;1.8468;
374.1000;0.6838;1.8655;
374.4000;0.6862;1.8655;
374.7000;0.6813;1.8492;
375.0000;0.6886;1.8655;
375.3000;0.6805;1.8515;
375.6000;0.6805;1.8445;
375.9000;0.6797;1.8562;
376.2000;0.6789;1.8562;
376.5000;0.6805;1.8655;
376.8000;0.6797;1.8679;
377.1000;0.6789;1.8632;
377.4000;0.6781;1.8585;
377.7000;0.6805;1.8702;
378.0000;0.6821;1.8726;
378.3000;0.6805;1.8515;
378.6000;0.6813;1.8445;
378.9000;0.6789;1.8445;
379.2000;0.6813;1.8375;
379.5000;0.6813;1.8304;
379.8000;0.6846;1.8445;
380.1000;0.6797;1.8304;
380.4000;0.6789;1.8351;
380.7000;0.6789;1.8351;
381.0000;0.6797;1.8375;
381.3000;0.6813;1.8445;
381.6000;0.6797;1.8351;
381.9000;0.6772;1.8164;
382.2000;0.6821;1.8281;
382.5000;0.6805;1.8258;
382.8000;0.6789;1.8258;
383.1000;0.6772;1.8211;
383.4000;0.6781;1.8304;
383.7000;0.6846;1.8515;
384.0000;0.6781;1.8258;
384.3000;0.6797;1.8304;
384.6000;0.6797;1.8351;
384.9000;0.6821;1.8398;
385.2000;0.6797;1.8304;
385.5000;0.6781;1.8304;
385.8000;0.6821;1.8421;
386.1000;0.6748;1.8281;
386.4000;0.6821;1.8398;
386.7000;0.6886;1.8515;
387.0000;0.6797;1.8281;
387.3000;0.6805;1.8328;
387.6000;0.6838;1.8398;
387.9000;0.6829;1.8351;
388.2000;0.6789;1.8211;
388.5000;0.6781;1.8187;
388.8000;0.6805;1.8234;
389.1000;0.6821;1.8281;
389.4000;0.6789;1.8234;
389.7000;0.6903;1.8515;
390.0000;0.6805;1.8304;
390.3000;0.6878;1.8421;
390.6000;0.6821;1.8328;
390.9000;0.6813;1.8258;
391.2000;0.6805;1.8375;
391.5000;0.6813;1.8398;
391.8000;0.6805;1.8468;
392.1000;0.6805;1.8351;
392.4000;0.6813;1.8304;
392.7000;0.6805;1.8258;
393.0000;0.6813;1.8281;
393.3000;0.6805;1.8258;
393.6000;0.6772;1.8187;
393.9000;0.6821;1.8234;
394.2000;0.6805;1.8234;
394.5000;0.6813;1.8234;
394.8000;0.6789;1.8258;
395.1000;0.6797;1.8258;
395.4000;0.6764;1.8117;
395.7000;0.6813;1.8070;
396.0000;0.6797;1.8000;
396.3000;0.6805;1.7883;
396.6000;0.6797;1.7883;
396.9000;0.6805;1.7930;
397.2000;0.6797;1.8023;
397.5000;0.6805;1.8094;
397.8000;0.6781;1.8070;
398.1000;0.6797;1.8023;
398.4000;0.6903;1.8304;
398.7000;0.6789;1.8047;
399.0000;0.6813;1.8094;
399.3000;0.6813;1.8117;
399.6000;0.6805;1.8164;
399.9000;0.6789;1.8141;
400.2000;0.6805;1.8281;
400.5000;0.6789;1.8304;
400.8000;0.6805;1.8281;
401.1000;0.6797;1.8304;
401.4000;0.6805;1.8351;
401.7000;0.6821;1.8328;
402.0000;0.6838;1.8398;
402.3000;0.6870;1.8515;
402.6000;0.6813;1.8515;
402.9000;0.6789;1.8421;
403.2000;0.6781;1.8445;
403.5000;0.6805;1.8445;
403.8000;0.6797;1.8351;
404.1000;0.6813;1.8445;
404.4000;0.6797;1.8375;
404.7000;0.6813;1.8398;
405.0000;0.6797;1.8375;
405.3000;0.6740;1.8234;
405.6000;0.6789;1.8375;
405.9000;0.6764;1.8281;
406.2000;0.6789;1.8375;
406.5000;0.6789;1.8375;
406.8000;0.6813;1.8304;
407.1000;0.6821;1.8375;
407.4000;0.6813;1.8398;
407.7000;0.6829;1.8328;
408.0000;0.6821;1.8234;
408.3000;0.6813;1.8281;
408.6000;0.6813;1.8398;
408.9000;0.6789;1.8304;
409.2000;0.6813;1.8328;
409.5000;0.6789;1.8117;
409.8000;0.6797;1.8117;
410.1000;0.6789;1.8070;
410.4000;0.6797;1.8047;
410.7000;0.6805;1.8094;
411.0000;0.6781;1.8023;
411.3000;0.6789;1.8070;
411.6000;0.6756;1.7953;
411.9000;0.6813;1.8117;
412.2000;0.6805;1.8070;
412.5000;0.6789;1.8164;
412.8000;0.6805;1.8234;
413.1000;0.6772;1.8164;
413.4000;0.6781;1.8094;
413.7000;0.6846;1.8304;
414.0000;0.6740;1.8094;
414.3000;0.6781;1.8187;
414.6000;0.6805;1.8304;
414.9000;0.6797;1.8281;
415.2000;0.6789;1.8234;
415.5000;0.6797;1.8304;
415.8000;0.6805;1.8351;
416.1000;0.6813;1.8328;
416.4000;0.6789;1.8258;
416.7000;0.6797;1.8211;
417.0000;0.6797;1.8187;
417.3000;0.6789;1.8141;
417.6000;0.6797;1.8094;
417.9000;0.6821;1.8141;
418.2000;0.6797;1.8094;
418.5000;0.6781;1.8141;
418.8000;0.6781;1.8211;
419.1000;0.6797;1.8281;
419.4000;0.6797;1.8211;
419.7000;0.6789;1.8281;
420.0000;0.6781;1.8211;
420.3000;0.6797;1.8164;
420.6000;0.6805;1.8164;
420.9000;0.6805;1.8234;
421.2000;0.6805;1.8234;
421.5000;0.6805;1.8281;
421.8000;0.6813;1.8304;
422.1000;0.6797;1.8281;
422.4000;0.6813;1.8281;
422.7000;0.6813;1.8304;
423.0000;0.6813;1.8351;
423.3000;0.6821;1.8398;
423.6000;0.6797;1.8328;
423.9000;0.6805;1.8258;
424.2000;0.6789;1.8234;
424.5000;0.6797;1.8328;
424.8000;0.6805;1.8421;
425.1000;0.6789;1.8398;
425.4000;0.6797;1.8468;
425.7000;0.6821;1.8492;
426.0000;0.6813;1.8398;
426.3000;0.6789;1.8421;
426.6000;0.6781;1.8328;
426.9000;0.6829;1.8398;
427.2000;0.6772;1.8375;
427.5000;0.6772;1.8375;
427.8000;0.6789;1.8492;
428.1000;0.6805;1.8445;
428.4000;0.6772;1.8234;
428.7000;0.6748;1.8234;
429.0000;0.6772;1.8328;
429.3000;0.6789;1.8398;
429.6000;0.6805;1.8398;
429.9000;0.6813;1.8281;
430.2000;0.6789;1.8211;
430.5000;0.6813;1.8211;
430.8000;0.6821;1.8281;
431.1000;0.6789;1.8281;
431.4000;0.6813;1.8164;
431.7000;0.6797;1.8117;
432.0000;0.6797;1.8117;
432.3000;0.6781;1.8047;
432.6000;0.6797;1.8047;
432.9000;0.6797;1.8094;
433.2000;0.6781;1.8094;
433.5000;0.6772;1.8141;
433.8000;0.6789;1.8211;
434.1000;0.6789;1.8328;
434.4000;0.6772;1.8304;
434.7000;0.6805;1.8375;
435.0000;0.6797;1.8304;
435.3000;0.6789;1.8328;
435.6000;0.6805;1.8328;
435.9000;0.6805;1.8375;
436.2000;0.6805;1.8468;
436.5000;0.6805;1.8421;
436.8000;0.6813;1.8445;
437.1000;0.6813;1.8421;
437.4000;0.6813;1.8421;
437.7000;0.6789;1.8351;
438.0000;0.6789;1.8351;
438.3000;0.6781;1.8304;
438.6000;0.6764;1.8375;
438.9000;0.6781;1.8398;
439.2000;0.6821;1.8468;
439.5000;0.6805;1.8421;
439.8000;0.6789;1.8304;
440.1000;0.6781;1.8328;
440.4000;0.6732;1.8187;
440.7000;0.6789;1.8304;
441.0000;0.6797;1.8211;
441.3000;0.6764;1.8141;
441.6000;0.6895;1.8421;
441.9000;0.6781;1.8164;
442.2000;0.6789;1.8281;
442.5000;0.6829;1.8211;
442.8000;0.6813;1.8187;
443.1000;0.6797;1.8141;
443.4000;0.6732;1.7977;
443.7000;0.6821;1.8304;
444.0000;0.6829;1.8351;
444.3000;0.6805;1.8234;
444.6000;0.6772;1.8211;
444.9000;0.6805;1.8351;
445.2000;0.6756;1.8234;
445.5000;0.6789;1.8234;
445.8000;0.6797;1.8258;
446.1000;0.6797;1.8281;
446.4000;0.6797;1.8304;
446.7000;0.6797;1.8211;
447.0000;0.6813;1.8304;
447.3000;0.6797;1.8258;
447.6000;0.6797;1.8258;
447.9000;0.6805;1.8211;
448.2000;0.6805;1.8070;
448.5000;0.6789;1.8117;
448.8000;0.6805;1.8164;
449.1000;0.6732;1.7930;
449.4000;0.6772;1.8070;
449.7000;0.6789;1.8117;
450.0000;0.6781;1.8117;
450.3000;0.6805;1.8187;
450.6000;0.6789;1.8234;
450.9000;0.6797;1.8258;
451.2000;0.6821;1.8281;
451.5000;0.6797;1.8281;
451.8000;0.6781;1.8258;
452.1000;0.6789;1.8211;
452.4000;0.6781;1.8141;
452.7000;0.6797;1.8141;
453.0000;0.6789;1.8117;
453.3000;0.6789;1.8000;
453.6000;0.6772;1.8000;
453.9000;0.6789;1.8070;
454.2000;0.6797;1.8117;
454.5000;0.6789;1.8117;
454.8000;0.6797;1.8281;
455.1000;0.6821;1.8398;
455.4000;0.6781;1.8258;
455.7000;0.6724;1.8117;
456.0000;0.6781;1.8211;
456.3000;0.6789;1.8304;
456.6000;0.6789;1.8351;
456.9000;0.6724;1.8234;
457.2000;0.6789;1.8445;
457.5000;0.6789;1.8375;
457.8000;0.6813;1.8375;
458.1000;0.6813;1.8304;
458.4000;0.6797;1.8304;
458.7000;0.6781;1.8304;
459.0000;0.6797;1.8351;
459.3000;0.6781;1.8304;
459.6000;0.6781;1.8398;
459.9000;0.6789;1.8351;
460.2000;0.6797;1.8328;
460.5000;0.6813;1.8398;
460.8000;0.6789;1.8351;
461.1000;0.6740;1.8211;
461.4000;0.6797;1.8281;
461.7000;0.6805;1.8351;
462.0000;0.6781;1.8281;
462.3000;0.6772;1.8211;
462.6000;0.6789;1.8281;
462.9000;0.6813;1.8281;
463.2000;0.6821;1.8375;
463.5000;0.6797;1.8304;
463.8000;0.6797;1.8328;
464.1000;0.6789;1.8375;
464.4000;0.6748;1.8281;
464.7000;0.6781;1.8304;
465.0000;0.6781;1.8304;
465.3000;0.6797;1.8351;
465.6000;0.6797;1.8304;
465.9000;0.6789;1.8304;
466.2000;0.6699;1.8141;
466.5000;0.6772;1.8351;
466.8000;0.6781;1.8515;
467.1000;0.6813;1.8468;
467.4000;0.6846;1.8468;
467.7000;0.6781;1.8234;
468.0000;0.6781;1.8141;
468.3000;0.6772;1.8141;
468.6000;0.6781;1.8187;
468.9000;0.6789;1.8211;
469.2000;0.6797;1.8211;
469.5000;0.6781;1.8281;
469.8000;0.6789;1.8234;
470.1000;0.6789;1.8258;
470.4000;0.6797;1.8304;
470.7000;0.6781;1.8234;
471.0000;0.6781;1.8187;
471.3000;0.6764;1.8117;
471.6000;0.6772;1.8070;
471.9000;0.6781;1.8117;
472.2000;0.6781;1.8070;
472.5000;0.6772;1.8070;
472.8000;0.6764;1.8047;
473.1000;0.6821;1.8141;
473.4000;0.6781;1.8117;
473.7000;0.6781;1.8164;
474.0000;0.6756;1.8141;
474.3000;0.6789;1.8187;
474.6000;0.6797;1.8211;
474.9000;0.6781;1.8211;
475.2000;0.6772;1.8211;
475.5000;0.6781;1.8164;
475.8000;0.6789;1.8164;
476.1000;0.6797;1.8258;
476.4000;0.6764;1.8304;
476.7000;0.6797;1.8445;
477.0000;0.6756;1.8375;
477.3000;0.6789;1.8421;
477.6000;0.6797;1.8421;
477.9000;0.6781;1.8351;
478.2000;0.6781;1.8281;
478.5000;0.6797;1.8211;
478.8000;0.6781;1.8187;
479.1000;0.6732;1.8141;
479.4000;0.6797;1.8328;
479.7000;0.6756;1.8187;
480.0000;0.6748;1.8023;
480.3000;0.6748;1.8070;
480.6000;0.6789;1.8070;
480.9000;0.6789;1.8070;
481.2000;0.6813;1.8211;
481.5000;0.6797;1.8211;
481.8000;0.6772;1.8258;
482.1000;0.6886;1.8492;
482.4000;0.6797;1.8187;
482.7000;0.6675;1.7930;
483.0000;0.6797;1.8141;
483.3000;0.6797;1.8211;
483.6000;0.6764;1.8164;
483.9000;0.6789;1.8281;
484.2000;0.6781;1.8234;
484.5000;0.6772;1.8234;
484.8000;0.6756;1.8164;
485.1000;0.6724;1.8047;
485.4000;0.6772;1.8258;
485.7000;0.6781;1.8258;
486.0000;0.6797;1.8304;
486.3000;0.6764;1.8351;
486.6000;0.6764;1.8375;
486.9000;0.6764;1.8304;
487.2000;0.6829;1.8398;
487.5000;0.6829;1.8375;
487.8000;0.6789;1.8351;
488.1000;0.6781;1.8304;
488.4000;0.6781;1.8351;
488.7000;0.6789;1.8211;
489.0000;0.6781;1.8211;
489.3000;0.6789;1.8187;
489.6000;0.6707;1.8000;
489.9000;0.6781;1.8234;
490.2000;0.6805;1.8281;
490.5000;0.6838;1.8398;
490.8000;0.6781;1.8234;
491.1000;0.6805;1.8258;
491.4000;0.6781;1.8164;
491.7000;0.6797;1.8258;
492.0000;0.6789;1.8304;
492.3000;0.6781;1.8258;
492.6000;0.6789;1.8328;
492.9000;0.6772;1.8304;
493.2000;0.6789;1.8304;
493.5000;0.6789;1.8164;
493.8000;0.6805;1.8187;
494.1000;0.6781;1.8258;
494.4000;0.6772;1.8211;
494.7000;0.6797;1.8281;
495.0000;0.6772;1.8234;
495.3000;0.6772;1.8234;
495.6000;0.6789;1.8375;
495.9000;0.6781;1.8328;
496.2000;0.6797;1.8351;
496.5000;0.6789;1.8304;
496.8000;0.6764;1.8234;
497.1000;0.6805;1.8304;
497.4000;0.6797;1.8187;
497.7000;0.6805;1.8211;
498.0000;0.6797;1.8164;
498.3000;0.6781;1.8141;
498.6000;0.6797;1.8234;
498.9000;0.6789;1.8164;
499.2000;0.6789;1.8164;
499.5000;0.6764;1.8141;
499.8000;0.6772;1.8141;
500.1000;0.6789;1.8258;
500.4000;0.6781;1.8211;
500.7000;0.6756;1.8117;
501.0000;0.6781;1.8117;
501.3000;0.6781;1.8117;
501.6000;0.6756;1.8141;
501.9000;0.6764;1.8094;
502.2000;0.6772;1.8070;
502.5000;0.6781;1.8141;
502.8000;0.6756;1.8187;
503.1000;0.6821;1.8281;
503.4000;0.6797;1.8141;
503.7000;0.6789;1.8117;
504.0000;0.6781;1.8094;
504.3000;0.6781;1.8023;
504.6000;0.6764;1.7977;
504.9000;0.6797;1.8000;
505.2000;0.6789;1.8023;
505.5000;0.6789;1.8070;
505.8000;0.6748;1.8023;
506.1000;0.6813;1.8234;
506.4000;0.6781;1.8164;
506.7000;0.6764;1.8094;
507.0000;0.6789;1.8141;
507.3000;0.6789;1.8070;
507.6000;0.6797;1.8187;
507.9000;0.6772;1.8094;
508.2000;0.6772;1.8047;
508.5000;0.6781;1.8117;
508.8000;0.6797;1.8281;
509.1000;0.6797;1.8211;
509.4000;0.6764;1.8187;
509.7000;0.6781;1.8164;
510.0000;0.6789;1.8234;
510.3000;0.6781;1.8164;
510.6000;0.6724;1.8070;
510.9000;0.6789;1.8234;
511.2000;0.6781;1.8258;
511.5000;0.6821;1.8304;
511.8000;0.6756;1.8211;
512.1000;0.6764;1.8281;
512.4000;0.6781;1.8234;
512.7000;0.6789;1.8234;
513.0000;0.6838;1.8351;
513.3000;0.6813;1.8234;
513.6000;0.6821;1.8258;
513.9000;0.6813;1.8328;
514.2000;0.6781;1.8351;
514.5000;0.6886;1.8562;
514.8000;0.6781;1.8304;
515.1000;0.6797;1.8421;
515.4000;0.6781;1.8468;
515.7000;0.6772;1.8398;
516.0000;0.6756;1.8375;
516.3000;0.6772;1.8445;
516.6000;0.6740;1.8398;
516.9000;0.6772;1.8398;
517.2000;0.6772;1.8398;
517.5000;0.6789;1.8445;
517.8000;0.6797;1.8421;
518.1000;0.6764;1.8328;
518.4000;0.6764;1.8328;
518.7000;0.6789;1.8445;
519.0000;0.6797;1.8492;
519.3000;0.6789;1.8515;
519.6000;0.6772;1.8492;
519.9000;0.6772;1.8515;
520.2000;0.6732;1.8421;
520.5000;0.6764;1.8538;
520.8000;0.6772;1.8515;
521.1000;0.6756;1.8515;
521.4000;0.6764;1.8468;
521.7000;0.6772;1.8445;
522.0000;0.6772;1.8585;
522.3000;0.6772;1.8515;
522.6000;0.6764;1.8351;
522.9000;0.6772;1.8421;
523.2000;0.6781;1.8468;
523.5000;0.6813;1.8421;
523.8000;0.6789;1.8351;
524.1000;0.6789;1.8421;
524.4000;0.6829;1.8538;
524.7000;0.6772;1.8421;
525.0000;0.6789;1.8398;
525.3000;0.6797;1.8328;
525.6000;0.6781;1.8375;
525.9000;0.6772;1.8375;
526.2000;0.6781;1.8398;
526.5000;0.6772;1.8421;
526.8000;0.6772;1.8538;
527.1000;0.6764;1.8468;
527.4000;0.6797;1.8562;
527.7000;0.6781;1.8515;
528.0000;0.6805;1.8632;
528.3000;0.6805;1.8562;
528.6000;0.6821;1.8515;
528.9000;0.6813;1.8492;
529.2000;0.6772;1.8492;
529.5000;0.6805;1.8468;
529.8000;0.6789;1.8421;
530.1000;0.6789;1.8375;
530.4000;0.6764;1.8328;
530.7000;0.6789;1.8398;
531.0000;0.6789;1.8421;
531.3000;0.6797;1.8421;
531.6000;0.6781;1.8421;
531.9000;0.6772;1.8375;
532.2000;0.6756;1.8445;
532.5000;0.6781;1.8445;
532.8000;0.6781;1.8445;
533.1000;0.6772;1.8398;
533.4000;0.6764;1.8468;
533.7000;0.6781;1.8421;
534.0000;0.6781;1.8492;
534.3000;0.6846;1.8749;
534.6000;0.6724;1.8398;
534.9000;0.6781;1.8562;
535.2000;0.6797;1.8632;
535.5000;0.6781;1.8562;
535.8000;0.6772;1.8468;
536.1000;0.6772;1.8328;
536.4000;0.6789;1.8375;
536.7000;0.6781;1.8421;
537.0000;0.6789;1.8398;
537.3000;0.6772;1.8445;
537.6000;0.6878;1.8702;
537.9000;0.6789;1.8492;
538.2000;0.6805;1.8562;
538.5000;0.6789;1.8562;
538.8000;0.6772;1.8468;
539.1000;0.6829;1.8609;
539.4000;0.6789;1.8515;
539.7000;0.6789;1.8468;
540.0000;0.6772;1.8351;
540.3000;0.6781;1.8375;
540.6000;0.6772;1.8281;
540.9000;0.6772;1.8351;
541.2000;0.6772;1.8281;
541.5000;0.6789;1.8328;
541.8000;0.6772;1.8328;
542.1000;0.6813;1.8468;
542.4000;0.6781;1.8398;
542.7000;0.6805;1.8468;
543.0000;0.6805;1.8445;
543.3000;0.6756;1.8375;
543.6000;0.6789;1.8538;
543.9000;0.6797;1.8515;
544.2000;0.6789;1.8515;
544.5000;0.6789;1.8585;
544.8000;0.6789;1.8562;
545.1000;0.6781;1.8538;
545.4000;0.6756;1.8562;
545.7000;0.6772;1.8585;
546.0000;0.6781;1.8609;
546.3000;0.6764;1.8562;
546.6000;0.6772;1.8585;
546.9000;0.6781;1.8585;
547.2000;0.6772;1.8585;
547.5000;0.6781;1.8515;
547.8000;0.6772;1.8468;
548.1000;0.6781;1.8492;
548.4000;0.6724;1.8375;
548.7000;0.6781;1.8421;
549.0000;0.6789;1.8398;
549.3000;0.6781;1.8375;
549.6000;0.6781;1.8421;
549.9000;0.6707;1.8351;
550.2000;0.6805;1.8585;
550.5000;0.6805;1.8609;
550.8000;0.6789;1.8538;
551.1000;0.6699;1.8328;
551.4000;0.6797;1.8538;
551.7000;0.6740;1.8375;
552.0000;0.6764;1.8562;
552.3000;0.6764;1.8562;
552.6000;0.6740;1.8492;
552.9000;0.6781;1.8515;
553.2000;0.6870;1.8726;
553.5000;0.6781;1.8515;
553.8000;0.6764;1.8515;
554.1000;0.6781;1.8515;
554.4000;0.6772;1.8515;
554.7000;0.6781;1.8468;
555.0000;0.6789;1.8538;
555.3000;0.6797;1.8562;
555.6000;0.6764;1.8515;
555.9000;0.6781;1.8562;
556.2000;0.6748;1.8445;
556.5000;0.6732;1.8445;
556.8000;0.6756;1.8492;
557.1000;0.6764;1.8468;
557.4000;0.6772;1.8609;
557.7000;0.6764;1.8609;
558.0000;0.6797;1.8538;
558.3000;0.6772;1.8492;
558.6000;0.6789;1.8632;
558.9000;0.6886;1.8890;
559.2000;0.6772;1.8585;
559.5000;0.6756;1.8492;
559.8000;0.6789;1.8515;
560.1000;0.6789;1.8538;
560.4000;0.6838;1.8679;
560.7000;0.6764;1.8538;
561.0000;0.6797;1.8585;
561.3000;0.6764;1.8492;
561.6000;0.6756;1.8492;
561.9000;0.6764;1.8515;
562.2000;0.6772;1.8421;
562.5000;0.6781;1.8538;
562.8000;0.6846;1.8679;
563.1000;0.6740;1.8375;
563.4000;0.6781;1.8538;
563.7000;0.6789;1.8468;
564.0000;0.6781;1.8445;
564.3000;0.6772;1.8398;
564.6000;0.6764;1.8468;
564.9000;0.6764;1.8585;
565.2000;0.6789;1.8609;
565.5000;0.6789;1.8609;
565.8000;0.6772;1.8609;
566.1000;0.6748;1.8538;
566.4000;0.6772;1.8515;
566.7000;0.6772;1.8562;
567.0000;0.6772;1.8585;
567.3000;0.6748;1.8492;
567.6000;0.6764;1.8538;
567.9000;0.6756;1.8468;
568.2000;0.6740;1.8421;
568.5000;0.6797;1.8585;
568.8000;0.6764;1.8609;
569.1000;0.6805;1.8655;
569.4000;0.6772;1.8632;
569.7000;0.6748;1.8585;
570.0000;0.6772;1.8702;
570.3000;0.6781;1.8679;
570.6000;0.6781;1.8655;
570.9000;0.6756;1.8609;
571.2000;0.6797;1.8702;
571.5000;0.6781;1.8515;
571.8000;0.6748;1.8398;
572.1000;0.6772;1.8398;
572.4000;0.6756;1.8351;
572.7000;0.6756;1.8375;
573.0000;0.6781;1.8375;
573.3000;0.6805;1.8445;
573.6000;0.6764;1.8304;
573.9000;0.6756;1.8375;
574.2000;0.6683;1.8258;
574.5000;0.6772;1.8515;
574.8000;0.6829;1.8632;
575.1000;0.6781;1.8562;
575.4000;0.6756;1.8585;
575.7000;0.6740;1.8515;
576.0000;0.6772;1.8492;
576.3000;0.6862;1.8655;
576.6000;0.6781;1.8421;
576.9000;0.6789;1.8445;
577.2000;0.6781;1.8421;
577.5000;0.6781;1.8398;
577.8000;0.6772;1.8398;
578.1000;0.6764;1.8375;
578.4000;0.6781;1.8445;
578.7000;0.6781;1.8492;
579.0000;0.6797;1.8585;
579.3000;0.6781;1.8445;
579.6000;0.6772;1.8375;
579.9000;0.6756;1.8351;
580.2000;0.6781;1.8375;
580.5000;0.6781;1.8351;
580.8000;0.6772;1.8398;
581.1000;0.6764;1.8351;
581.4000;0.6764;1.8398;
581.7000;0.6764;1.8351;
582.0000;0.6772;1.8281;
582.3000;0.6781;1.8304;
582.6000;0.6764;1.8234;
582.9000;0.6781;1.8234;
583.2000;0.6781;1.8281;
583.5000;0.6764;1.8258;
583.8000;0.6772;1.8281;
584.1000;0.6789;1.8304;
584.4000;0.6789;1.8375;
584.7000;0.6772;1.8492;
585.0000;0.6764;1.8585;
585.3000;0.6789;1.8655;
585.6000;0.6772;1.8632;
585.9000;0.6740;1.8562;
586.2000;0.6748;1.8515;
586.5000;0.6772;1.8632;
586.8000;0.6813;1.8702;
587.1000;0.6789;1.8609;
587.4000;0.6781;1.8515;
587.7000;0.6756;1.8492;
588.0000;0.6805;1.8609;
588.3000;0.6781;1.8609;
588.6000;0.6772;1.8655;
588.9000;0.6789;1.8655;
589.2000;0.6781;1.8609;
589.5000;0.6781;1.8585;
589.8000;0.6772;1.8515;
590.1000;0.6772;1.8492;
590.4000;0.6772;1.8445;
590.7000;0.6789;1.8398;
591.0000;0.6724;1.8281;
591.3000;0.6764;1.8375;
591.6000;0.6781;1.8398;
591.9000;0.6781;1.8468;
592.2000;0.6756;1.8351;
592.5000;0.6772;1.8258;
592.8000;0.6781;1.8328;
593.1000;0.6699;1.8187;
593.4000;0.6764;1.8375;
593.7000;0.6748;1.8234;
594.0000;0.6772;1.8258;
594.3000;0.6805;1.8328;
594.6000;0.6781;1.8351;
594.9000;0.6781;1.8351;
595.2000;0.6781;1.8445;
595.5000;0.6756;1.8445;
595.8000;0.6789;1.8398;
596.1000;0.6797;1.8375;
596.4000;0.6781;1.8328;
596.7000;0.6756;1.8281;
597.0000;0.6781;1.8375;
597.3000;0.6772;1.8492;
597.6000;0.6764;1.8492;
597.9000;0.6764;1.8468;
598.2000;0.6797;1.8562;
598.5000;0.6756;1.8515;
598.8000;0.6675;1.8351;
599.1000;0.6789;1.8445;
599.4000;0.6813;1.8515;
599.7000;0.6789;1.8492;
600.0000;0.6707;1.8328;
600.3000;0.6748;1.8258;
600.6000;0.6691;1.8070;
600.9000;0.6618;1.7953;
601.2000;0.6488;1.7649;
601.5000;0.6422;1.7532;
601.8000;0.6300;1.7368;
602.1000;0.6252;1.7251;
602.4000;0.6129;1.7017;
602.7000;0.6032;1.6853;
603.0000;0.5918;1.6572;
603.3000;0.5877;1.6455;
603.6000;0.5853;1.6455;
603.9000;0.5747;1.6245;
604.2000;0.5698;1.6174;
604.5000;0.5641;1.5987;
604.8000;0.5633;1.5940;
605.1000;0.5568;1.5776;
605.4000;0.5560;1.5683;
605.7000;0.5470;1.5496;
606.0000;0.5462;1.5425;
606.3000;0.5405;1.5261;
606.6000;0.5364;1.5144;
606.9000;0.5324;1.5051;
607.2000;0.5315;1.5027;
607.5000;0.5283;1.4840;
607.8000;0.5283;1.4817;
608.1000;0.5193;1.4653;
608.4000;0.5234;1.4723;
608.7000;0.5210;1.4676;
609.0000;0.5144;1.4606;
609.3000;0.5193;1.4723;
609.6000;0.5120;1.4512;
609.9000;0.5104;1.4536;
610.2000;0.5088;1.4536;
610.5000;0.5063;1.4489;
610.8000;0.5071;1.4466;
611.1000;0.5014;1.4349;
611.4000;0.5006;1.4325;
611.7000;0.5014;1.4349;
612.0000;0.4982;1.4255;
612.3000;0.4982;1.4419;
612.6000;0.4998;1.4512;
612.9000;0.4957;1.4349;
613.2000;0.4941;1.4325;
613.5000;0.4933;1.4278;
613.8000;0.4949;1.4349;
614.1000;0.5014;1.4606;
614.4000;0.4917;1.4372;
614.7000;0.4900;1.4372;
615.0000;0.4900;1.4349;
615.3000;0.4884;1.4232;
615.6000;0.4884;1.4161;
615.9000;0.4860;1.4068;
616.2000;0.4851;1.4091;
616.5000;0.4851;1.4068;
616.8000;0.4827;1.4138;
617.1000;0.4860;1.4255;
617.4000;0.4819;1.4232;
617.7000;0.4819;1.4208;
618.0000;0.4803;1.4208;
618.3000;0.4786;1.4138;
618.6000;0.4786;1.4232;
618.9000;0.4794;1.4208;
619.2000;0.4770;1.4138;
619.5000;0.4803;1.4161;
619.8000;0.4778;1.4021;
620.1000;0.4697;1.3857;
620.4000;0.4754;1.4091;
620.7000;0.4746;1.4091;
621.0000;0.4705;1.3997;
621.3000;0.4705;1.4021;
621.6000;0.4737;1.4091;
621.9000;0.4721;1.4091;
622.2000;0.4729;1.4138;
622.5000;0.4721;1.4044;
622.8000;0.4721;1.3974;
623.1000;0.4681;1.3927;
623.4000;0.4697;1.3927;
623.7000;0.4697;1.3834;
624.0000;0.4737;1.3880;
624.3000;0.4681;1.3740;
624.6000;0.4697;1.3646;
624.9000;0.4656;1.3670;
625.2000;0.4681;1.3717;
625.5000;0.4648;1.3670;
625.8000;0.4656;1.3787;
626.1000;0.4656;1.3904;
626.4000;0.4648;1.3857;
626.7000;0.4664;1.3904;
627.0000;0.4672;1.3857;
627.3000;0.4664;1.3880;
627.6000;0.4656;1.3951;
627.9000;0.4632;1.3997;
628.2000;0.4648;1.4044;
628.5000;0.4632;1.4044;
628.8000;0.4681;1.4068;
629.1000;0.4624;1.3974;
629.4000;0.4648;1.3997;
629.7000;0.4599;1.3880;
630.0000;0.4624;1.4021;
630.3000;0.4713;1.4278;
630.6000;0.4615;1.4021;
630.9000;0.4615;1.4044;
631.2000;0.4599;1.3951;
631.5000;0.4599;1.3997;
631.8000;0.4599;1.3974;
632.1000;0.4640;1.4091;
632.4000;0.4591;1.4021;
632.7000;0.4591;1.4068;
633.0000;0.4558;1.3997;
633.3000;0.4485;1.3834;
633.6000;0.4575;1.4068;
633.9000;0.4567;1.4021;
634.2000;0.4534;1.3880;
634.5000;0.4550;1.3880;
634.8000;0.4575;1.3904;
635.1000;0.4567;1.3880;
635.4000;0.4550;1.3810;
635.7000;0.4550;1.3834;
636.0000;0.4542;1.3834;
636.3000;0.4575;1.3810;
636.6000;0.4567;1.3834;
636.9000;0.4558;1.3810;
637.2000;0.4534;1.3834;
637.5000;0.4534;1.3857;
637.8000;0.4526;1.3904;
638.1000;0.4567;1.4068;
638.4000;0.4542;1.3927;
638.7000;0.4534;1.3880;
639.0000;0.4518;1.3763;
639.3000;0.4518;1.3740;
639.6000;0.4518;1.3693;
639.9000;0.4526;1.3600;
640.2000;0.4526;1.3436;
640.5000;0.4518;1.3412;
640.8000;0.4534;1.3436;
641.1000;0.4518;1.3506;
641.4000;0.4518;1.3482;
641.7000;0.4526;1.3436;
642.0000;0.4534;1.3529;
642.3000;0.4510;1.3529;
642.6000;0.4518;1.3600;
642.9000;0.4510;1.3623;
643.2000;0.4510;1.3646;
643.5000;0.4493;1.3740;
643.8000;0.4501;1.3740;
644.1000;0.4453;1.3646;
644.4000;0.4404;1.3600;
644.7000;0.4493;1.3787;
645.0000;0.4477;1.3857;
645.3000;0.4469;1.3834;
645.6000;0.4485;1.3904;
645.9000;0.4485;1.3951;
646.2000;0.4453;1.3974;
646.5000;0.4485;1.4044;
646.8000;0.4485;1.4068;
647.1000;0.4477;1.3974;
647.4000;0.4469;1.3997;
647.7000;0.4493;1.3974;
648.0000;0.4485;1.3904;
648.3000;0.4501;1.3904;
648.6000;0.4453;1.3880;
648.9000;0.4461;1.3880;
649.2000;0.4583;1.4161;
649.5000;0.4550;1.4044;
649.8000;0.4453;1.3857;
650.1000;0.4444;1.3834;
650.4000;0.4477;1.3904;
650.7000;0.4493;1.3951;
651.0000;0.4469;1.3880;
651.3000;0.4469;1.3810;
651.6000;0.4510;1.3904;
651.9000;0.4485;1.3857;
652.2000;0.4461;1.3787;
652.5000;0.4420;1.3717;
652.8000;0.4453;1.3740;
653.1000;0.4461;1.3810;
653.4000;0.4396;1.3740;
653.7000;0.4428;1.3904;
654.0000;0.4428;1.3974;
654.3000;0.4453;1.3974;
654.6000;0.4444;1.3904;
654.9000;0.4420;1.3763;
655.2000;0.4428;1.3787;
655.5000;0.4436;1.3857;
655.8000;0.4436;1.3787;
656.1000;0.4436;1.3740;
656.4000;0.4420;1.3740;
656.7000;0.4444;1.3763;
657.0000;0.4412;1.3670;
657.3000;0.4444;1.3670;
657.6000;0.4412;1.3693;
657.9000;0.4404;1.3600;
658.2000;0.4428;1.3763;
658.5000;0.4404;1.3787;
658.8000;0.4396;1.3763;
659.1000;0.4404;1.3787;
659.4000;0.4436;1.3740;
659.7000;0.4420;1.3693;
660.0000;0.4436;1.3740;
660.3000;0.4420;1.3670;
660.6000;0.4428;1.3623;
660.9000;0.4412;1.3600;
661.2000;0.4396;1.3529;
661.5000;0.4387;1.3623;
661.8000;0.4412;1.3576;
662.1000;0.4404;1.3623;
662.4000;0.4412;1.3646;
662.7000;0.4412;1.3693;
663.0000;0.4404;1.3810;
663.3000;0.4412;1.3857;
663.6000;0.4387;1.3787;
663.9000;0.4412;1.3927;
664.2000;0.4428;1.3951;
664.5000;0.4396;1.3904;
664.8000;0.4379;1.3927;
665.1000;0.4387;1.3927;
665.4000;0.4396;1.3880;
665.7000;0.4347;1.3717;
666.0000;0.4387;1.3740;
666.3000;0.4363;1.3717;
666.6000;0.4379;1.3740;
666.9000;0.4355;1.3623;
667.2000;0.4396;1.3717;
667.5000;0.4379;1.3717;
667.8000;0.4387;1.3763;
668.1000;0.4371;1.3717;
668.4000;0.4412;1.3834;
668.7000;0.4387;1.3763;
669.0000;0.4379;1.3717;
669.3000;0.4339;1.3740;
669.6000;0.4371;1.3857;
669.9000;0.4322;1.3693;
670.2000;0.4387;1.3810;
670.5000;0.4387;1.3834;
670.8000;0.4387;1.3857;
671.1000;0.4363;1.3834;
671.4000;0.4404;1.3927;
671.7000;0.4363;1.3880;
672.0000;0.4371;1.3880;
672.3000;0.4355;1.3857;
672.6000;0.4363;1.3857;
672.9000;0.4355;1.3834;
673.2000;0.4363;1.3693;
673.5000;0.4355;1.3787;
673.8000;0.4314;1.3646;
674.1000;0.4339;1.3763;
674.4000;0.4355;1.3810;
674.7000;0.4339;1.3787;
675.0000;0.4265;1.3670;
675.3000;0.4355;1.4021;
675.6000;0.4355;1.3927;
675.9000;0.4355;1.3951;
676.2000;0.4290;1.3880;
676.5000;0.4347;1.4044;
676.8000;0.4371;1.4021;
677.1000;0.4355;1.3927;
677.4000;0.4420;1.4044;
677.7000;0.4330;1.3834;
678.0000;0.4379;1.3857;
678.3000;0.4347;1.3904;
678.6000;0.4363;1.4068;
678.9000;0.4339;1.3997;
679.2000;0.4330;1.3927;
679.5000;0.4339;1.3857;
679.8000;0.4339;1.3834;
680.1000;0.4339;1.3904;
680.4000;0.4322;1.3834;
680.7000;0.4339;1.3904;
681.0000;0.4339;1.3927;
681.3000;0.4322;1.4044;
681.6000;0.4330;1.4068;
681.9000;0.4322;1.3997;
682.2000;0.4339;1.4068;
682.5000;0.4322;1.4021;
682.8000;0.4330;1.3997;
683.1000;0.4306;1.3834;
683.4000;0.4322;1.3787;
683.7000;0.4330;1.3810;
684.0000;0.4241;1.3646;
684.3000;0.4330;1.3857;
684.6000;0.4314;1.3717;
684.9000;0.4314;1.3763;
685.2000;0.4298;1.3763;
685.5000;0.4322;1.3787;
685.8000;0.4290;1.3740;
686.1000;0.4314;1.3740;
686.4000;0.4298;1.3740;
686.7000;0.4322;1.3927;
687.0000;0.4314;1.3974;
687.3000;0.4290;1.3927;
687.6000;0.4322;1.3951;
687.9000;0.4330;1.3974;
688.2000;0.4306;1.3951;
688.5000;0.4314;1.3951;
688.8000;0.4314;1.3974;
689.1000;0.4306;1.3997;
689.4000;0.4306;1.3951;
689.7000;0.4298;1.3974;
690.0000;0.4306;1.4021;
690.3000;0.4274;1.3904;
690.6000;0.4290;1.3904;
690.9000;0.4314;1.3857;
691.2000;0.4217;1.3646;
691.5000;0.4339;1.3997;
691.8000;0.4274;1.3857;
692.1000;0.4298;1.3974;
692.4000;0.4290;1.3951;
692.7000;0.4298;1.3904;
693.0000;0.4282;1.3880;
693.3000;0.4225;1.3810;
693.6000;0.4298;1.4021;
693.9000;0.4355;1.4255;
694.2000;0.4314;1.4114;
694.5000;0.4200;1.3740;
694.8000;0.4290;1.3951;
695.1000;0.4290;1.3951;
695.4000;0.4298;1.3927;
695.7000;0.4274;1.3880;
696.0000;0.4290;1.3974;
696.3000;0.4314;1.4091;
696.6000;0.4265;1.3951;
696.9000;0.4314;1.4044;
697.2000;0.4265;1.3997;
697.5000;0.4298;1.4068;
697.8000;0.4290;1.4138;
698.1000;0.4290;1.4161;
698.4000;0.4233;1.4021;
698.7000;0.4290;1.4208;
699.0000;0.4282;1.4208;
699.3000;0.4290;1.4114;
699.6000;0.4290;1.4114;
699.9000;0.4282;1.4021;
700.2000;0.4282;1.4091;
700.5000;0.4363;1.4325;
700.8000;0.4257;1.4068;
701.1000;0.4265;1.3974;
701.4000;0.4274;1.4044;
701.7000;0.4290;1.4068;
702.0000;0.4274;1.3997;
702.3000;0.4274;1.4021;
702.6000;0.4274;1.4044;
702.9000;0.4282;1.4021;
703.2000;0.4274;1.3951;
703.5000;0.4249;1.3974;
703.8000;0.4274;1.3974;
704.1000;0.4339;1.4161;
704.4000;0.4274;1.3997;
704.7000;0.4257;1.3904;
705.0000;0.4265;1.3834;
705.3000;0.4265;1.3810;
705.6000;0.4282;1.3974;
705.9000;0.4274;1.3951;
706.2000;0.4257;1.3997;
706.5000;0.4265;1.4044;
706.8000;0.4282;1.4068;
707.1000;0.4208;1.3880;
707.4000;0.4265;1.4068;
707.7000;0.4257;1.4091;
708.0000;0.4257;1.4138;
708.3000;0.4265;1.4185;
708.6000;0.4257;1.4114;
708.9000;0.4249;1.4138;
709.2000;0.4241;1.4114;
709.5000;0.4274;1.4138;
709.8000;0.4265;1.4114;
710.1000;0.4233;1.4091;
710.4000;0.4265;1.4161;
710.7000;0.4257;1.4138;
711.0000;0.4257;1.4044;
711.3000;0.4306;1.4232;
711.6000;0.4265;1.4114;
711.9000;0.4233;1.4021;
712.2000;0.4249;1.4185;
712.5000;0.4217;1.4091;
712.8000;0.4265;1.4091;
713.1000;0.4257;1.3997;
713.4000;0.4241;1.3904;
713.7000;0.4241;1.4021;
714.0000;0.4249;1.4091;
714.3000;0.4200;1.3974;
714.6000;0.4225;1.4091;
714.9000;0.4274;1.4138;
715.2000;0.4241;1.4044;
715.5000;0.4217;1.4021;
715.8000;0.4265;1.4114;
716.1000;0.4298;1.4114;
716.4000;0.4233;1.3927;
716.7000;0.4249;1.3880;
717.0000;0.4265;1.3997;
717.3000;0.4192;1.3880;
717.6000;0.4265;1.4044;
717.9000;0.4257;1.4091;
718.2000;0.4257;1.4114;
718.5000;0.4241;1.4091;
718.8000;0.4233;1.4068;
719.1000;0.4225;1.4091;
719.4000;0.4290;1.4208;
719.7000;0.4265;1.4208;
720.0000;0.4233;1.4232;
720.3000;0.4233;1.4255;
720.6000;0.4241;1.4278;
720.9000;0.4314;1.4466;
721.2000;0.4257;1.4349;
721.5000;0.4282;1.4419;
721.8000;0.4233;1.4325;
722.1000;0.4233;1.4349;
722.4000;0.4257;1.4395;
722.7000;0.4217;1.4232;
723.0000;0.4233;1.4255;
723.3000;0.4249;1.4185;
723.6000;0.4208;1.4021;
723.9000;0.4249;1.4091;
724.2000;0.4241;1.4044;
724.5000;0.4217;1.3974;
724.8000;0.4233;1.4091;
725.1000;0.4217;1.4021;
725.4000;0.4282;1.4208;
725.7000;0.4225;1.4044;
726.0000;0.4233;1.4068;
726.3000;0.4225;1.3997;
726.6000;0.4225;1.4021;
726.9000;0.4225;1.3997;
727.2000;0.4217;1.4091;
727.5000;0.4241;1.4138;
727.8000;0.4225;1.4068;
728.1000;0.4208;1.3997;
728.4000;0.4225;1.4021;
728.7000;0.4233;1.4068;
729.0000;0.4233;1.4185;
729.3000;0.4208;1.4185;
729.6000;0.4200;1.4138;
729.9000;0.4208;1.4185;
730.2000;0.4200;1.4138;
730.5000;0.4200;1.4091;
730.8000;0.4217;1.4185;
731.1000;0.4225;1.4161;
731.4000;0.4200;1.4185;
731.7000;0.4200;1.4114;
732.0000;0.4200;1.4091;
732.3000;0.4208;1.4021;
732.6000;0.4208;1.3997;
732.9000;0.4217;1.3951;
733.2000;0.4192;1.3880;
733.5000;0.4208;1.3880;
733.8000;0.4217;1.3904;
734.1000;0.4200;1.3974;
734.4000;0.4176;1.4044;
734.7000;0.4217;1.4091;
735.0000;0.4225;1.4114;
735.3000;0.4208;1.4161;
735.6000;0.4217;1.4208;
735.9000;0.4168;1.4091;
736.2000;0.4208;1.4161;
736.5000;0.4192;1.4138;
736.8000;0.4192;1.4068;
737.1000;0.4200;1.4114;
737.4000;0.4241;1.4325;
737.7000;0.4200;1.4161;
738.0000;0.4192;1.4138;
738.3000;0.4192;1.4185;
738.6000;0.4208;1.4278;
738.9000;0.4217;1.4302;
739.2000;0.4217;1.4302;
739.5000;0.4208;1.4395;
739.8000;0.4200;1.4442;
740.1000;0.4208;1.4512;
740.4000;0.4233;1.4466;
740.7000;0.4200;1.4395;
741.0000;0.4233;1.4372;
741.3000;0.4127;1.4091;
741.6000;0.4217;1.4372;
741.9000;0.4200;1.4278;
742.2000;0.4257;1.4442;
742.5000;0.4225;1.4278;
742.8000;0.4208;1.4278;
743.1000;0.4200;1.4302;
743.4000;0.4257;1.4512;
743.7000;0.4208;1.4395;
744.0000;0.4208;1.4302;
744.3000;0.4217;1.4395;
744.6000;0.4192;1.4255;
744.9000;0.4233;1.4302;
745.2000;0.4241;1.4255;
745.5000;0.4208;1.4114;
745.8000;0.4160;1.4044;
746.1000;0.4225;1.4208;
746.4000;0.4103;1.3904;
746.7000;0.4192;1.4091;
747.0000;0.4257;1.4208;
747.3000;0.4192;1.4138;
747.6000;0.4233;1.4185;
747.9000;0.4208;1.4091;
748.2000;0.4192;1.4044;
748.5000;0.4208;1.4138;
748.8000;0.4192;1.4068;
749.1000;0.4217;1.4114;
749.4000;0.4176;1.4091;
749.7000;0.4176;1.4091;
750.0000;0.4217;1.4091;
750.3000;0.4200;1.4021;
750.6000;0.4200;1.4091;
750.9000;0.4225;1.4091;
751.2000;0.4184;1.3951;
751.5000;0.4225;1.4114;
751.8000;0.4208;1.4114;
752.1000;0.4176;1.4044;
752.4000;0.4217;1.4068;
752.7000;0.4217;1.3974;
753.0000;0.4192;1.3904;
753.3000;0.4176;1.3880;
753.6000;0.4200;1.3951;
753.9000;0.4265;1.4232;
754.2000;0.4208;1.4114;
754.5000;0.4200;1.4091;
754.8000;0.4160;1.3997;
755.1000;0.4208;1.4138;
755.4000;0.4168;1.3997;
755.7000;0.4160;1.4068;
756.0000;0.4119;1.3951;
756.3000;0.4168;1.3997;
756.6000;0.4176;1.3997;
756.9000;0.4176;1.3951;
757.2000;0.4176;1.3951;
757.5000;0.4160;1.3974;
757.8000;0.4184;1.4068;
758.1000;0.4192;1.4068;
758.4000;0.4176;1.4161;
758.7000;0.4168;1.4068;
759.0000;0.4176;1.4091;
759.3000;0.4192;1.4068;
759.6000;0.4176;1.3997;
759.9000;0.4160;1.4021;
760.2000;0.4200;1.4091;
760.5000;0.4160;1.4021;
760.8000;0.4200;1.4161;
761.1000;0.4143;1.4021;
761.4000;0.4208;1.4044;
761.7000;0.4184;1.4044;
762.0000;0.4176;1.4068;
762.3000;0.4200;1.4161;
762.6000;0.4168;1.4068;
762.9000;0.4160;1.3974;
763.2000;0.4143;1.3904;
763.5000;0.4127;1.3880;
763.8000;0.4184;1.4021;
764.1000;0.4168;1.4068;
764.4000;0.4192;1.4161;
764.7000;0.4184;1.4138;
765.0000;0.4208;1.4232;
765.3000;0.4192;1.4278;
765.6000;0.4176;1.4208;
765.9000;0.4176;1.4232;
766.2000;0.4176;1.4302;
766.5000;0.4176;1.4302;
766.8000;0.4168;1.4325;
767.1000;0.4160;1.4255;
767.4000;0.4192;1.4278;
767.7000;0.4168;1.4114;
768.0000;0.4168;1.4114;
768.3000;0.4168;1.4185;
768.6000;0.4127;1.4138;
768.9000;0.4192;1.4349;
769.2000;0.4192;1.4372;
769.5000;0.4176;1.4349;
769.8000;0.4151;1.4255;
770.1000;0.4168;1.4372;
770.4000;0.4151;1.4372;
770.7000;0.4127;1.4302;
771.0000;0.4135;1.4302;
771.3000;0.4151;1.4278;
771.6000;0.4176;1.4255;
771.9000;0.4176;1.4232;
772.2000;0.4168;1.4208;
772.5000;0.4168;1.4138;
772.8000;0.4160;1.4232;
773.1000;0.4160;1.4255;
773.4000;0.4143;1.4208;
773.7000;0.4168;1.4208;
774.0000;0.4160;1.4185;
774.3000;0.4160;1.4138;
774.6000;0.4192;1.4208;
774.9000;0.4160;1.4138;
775.2000;0.4119;1.3997;
775.5000;0.4168;1.4138;
775.8000;0.4135;1.4044;
776.1000;0.4119;1.4044;
776.4000;0.4160;1.4138;
776.7000;0.4160;1.4185;
777.0000;0.4111;1.4208;
777.3000;0.4143;1.4208;
777.6000;0.4143;1.4255;
777.9000;0.4135;1.4255;
778.2000;0.4265;1.4512;
778.5000;0.4160;1.4255;
778.8000;0.4143;1.4208;
779.1000;0.4160;1.4161;
779.4000;0.4151;1.4091;
779.7000;0.4168;1.4138;
780.0000;0.4143;1.4068;
780.3000;0.4086;1.4021;
780.6000;0.4160;1.4278;
780.9000;0.4168;1.4255;
781.2000;0.4160;1.4255;
781.5000;0.4135;1.4349;
781.8000;0.4168;1.4419;
782.1000;0.4151;1.4349;
782.4000;0.4200;1.4442;
782.7000;0.4160;1.4395;
783.0000;0.4168;1.4395;
783.3000;0.4176;1.4395;
783.6000;0.4168;1.4442;
783.9000;0.4168;1.4466;
784.2000;0.4176;1.4419;
784.5000;0.4151;1.4302;
784.8000;0.4160;1.4349;
785.1000;0.4119;1.4232;
785.4000;0.4168;1.4325;
785.7000;0.4160;1.4232;
786.0000;0.4192;1.4349;
786.3000;0.4151;1.4232;
786.6000;0.4184;1.4302;
786.9000;0.4192;1.4349;
787.2000;0.4168;1.4208;
787.5000;0.4135;1.4161;
787.8000;0.4184;1.4278;
788.1000;0.4135;1.4138;
788.4000;0.4143;1.4138;
788.7000;0.4127;1.4114;
789.0000;0.4143;1.4208;
789.3000;0.4200;1.4278;
789.6000;0.4143;1.4255;
789.9000;0.4111;1.4138;
790.2000;0.4135;1.4325;
790.5000;0.4135;1.4349;
790.8000;0.4119;1.4372;
791.1000;0.4160;1.4466;
791.4000;0.4168;1.4559;
791.7000;0.4143;1.4489;
792.0000;0.4151;1.4583;
792.3000;0.4127;1.4583;
792.6000;0.4135;1.4559;
792.9000;0.4160;1.4653;
793.2000;0.4127;1.4559;
793.5000;0.4168;1.4606;
793.8000;0.4135;1.4466;
794.1000;0.4151;1.4466;
794.4000;0.4143;1.4395;
794.7000;0.4151;1.4349;
795.0000;0.4160;1.4372;
795.3000;0.4143;1.4302;
795.6000;0.4143;1.4395;
795.9000;0.4143;1.4419;
796.2000;0.4135;1.4395;
796.5000;0.4054;1.4208;
796.8000;0.4135;1.4419;
797.1000;0.4135;1.4419;
797.4000;0.4160;1.4489;
797.7000;0.4119;1.4372;
798.0000;0.4127;1.4466;
798.3000;0.4135;1.4512;
798.6000;0.4127;1.4466;
798.9000;0.4111;1.4442;
799.2000;0.4135;1.4489;
799.5000;0.4111;1.4442;
799.8000;0.4111;1.4489;
800.1000;0.4119;1.4536;
800.4000;0.4135;1.4512;
800.7000;0.4119;1.4466;
801.0000;0.4111;1.4442;
801.3000;0.4135;1.4489;
801.6000;0.4143;1.4419;
801.9000;0.4143;1.4395;
802.2000;0.4143;1.4349;
802.5000;0.4127;1.4208;
802.8000;0.4127;1.4208;
803.1000;0.4151;1.4278;
803.4000;0.4135;1.4255;
803.7000;0.4168;1.4302;
804.0000;0.4143;1.4302;
804.3000;0.4103;1.4278;
804.6000;0.4103;1.4325;
804.9000;0.4119;1.4232;
805.2000;0.4135;1.4278;
805.5000;0.4168;1.4349;
805.8000;0.4151;1.4349;
806.1000;0.4151;1.4372;
806.4000;0.4168;1.4442;
806.7000;0.4119;1.4372;
807.0000;0.4135;1.4302;
807.3000;0.4046;1.4114;
807.6000;0.4103;1.4232;
807.9000;0.4135;1.4278;
808.2000;0.4127;1.4325;
808.5000;0.4111;1.4349;
808.8000;0.4127;1.4372;
809.1000;0.4111;1.4349;
809.4000;0.4151;1.4395;
809.7000;0.4135;1.4278;
810.0000;0.4119;1.4302;
810.3000;0.4111;1.4372;
810.6000;0.4168;1.4489;
810.9000;0.4127;1.4395;
811.2000;0.4119;1.4372;
811.5000;0.4111;1.4302;
811.8000;0.4127;1.4419;
812.1000;0.4127;1.4325;
812.4000;0.4127;1.4466;
812.7000;0.4127;1.4583;
813.0000;0.4119;1.4606;
813.3000;0.4111;1.4489;
813.6000;0.4119;1.4466;
813.9000;0.4119;1.4466;
814.2000;0.4119;1.4489;
814.5000;0.4111;1.4466;
814.8000;0.4103;1.4466;
815.1000;0.4103;1.4466;
815.4000;0.4127;1.4489;
815.7000;0.4111;1.4419;
816.0000;0.4119;1.4489;
816.3000;0.4143;1.4559;
816.6000;0.4135;1.4512;
816.9000;0.4217;1.4700;
817.2000;0.4127;1.4489;
817.5000;0.4119;1.4489;
817.8000;0.4127;1.4466;
818.1000;0.4135;1.4512;
818.4000;0.4127;1.4559;
818.7000;0.4135;1.4536;
819.0000;0.4111;1.4466;
819.3000;0.4111;1.4536;
819.6000;0.4135;1.4559;
819.9000;0.4135;1.4512;
820.2000;0.4103;1.4419;
820.5000;0.4119;1.4466;
820.8000;0.4135;1.4395;
821.1000;0.4127;1.4278;
821.4000;0.4103;1.4302;
821.7000;0.4111;1.4325;
822.0000;0.4103;1.4302;
822.3000;0.4119;1.4419;
822.6000;0.4086;1.4395;
822.9000;0.4062;1.4349;
823.2000;0.4111;1.4372;
823.5000;0.4111;1.4349;
823.8000;0.4111;1.4395;
824.1000;0.4086;1.4349;
824.4000;0.4111;1.4442;
824.7000;0.4111;1.4349;
825.0000;0.4111;1.4278;
825.3000;0.4143;1.4325;
825.6000;0.4119;1.4302;
825.9000;0.4119;1.4325;
826.2000;0.4094;1.4232;
826.5000;0.4127;1.4278;
826.8000;0.4119;1.4278;
827.1000;0.4086;1.4325;
827.4000;0.4119;1.4466;
827.7000;0.4111;1.4512;
828.0000;0.4103;1.4466;
828.3000;0.4103;1.4466;
828.6000;0.4103;1.4466;
828.9000;0.4094;1.4442;
829.2000;0.4103;1.4466;
829.5000;0.4078;1.4349;
829.8000;0.4103;1.4395;
830.1000;0.4103;1.4349;
830.4000;0.4094;1.4302;
830.7000;0.4103;1.4302;
831.0000;0.4094;1.4255;
831.3000;0.4103;1.4255;
831.6000;0.4200;1.4466;
831.9000;0.4111;1.4232;
832.2000;0.4103;1.4325;
832.5000;0.4111;1.4302;
832.8000;0.4103;1.4278;
833.1000;0.4111;1.4325;
833.4000;0.4127;1.4255;
833.7000;0.4070;1.4208;
834.0000;0.4111;1.4278;
834.3000;0.4119;1.4278;
834.6000;0.4078;1.4185;
834.9000;0.4094;1.4208;
835.2000;0.4111;1.4278;
835.5000;0.4103;1.4232;
835.8000;0.4111;1.4278;
836.1000;0.4070;1.4161;
836.4000;0.4103;1.4138;
836.7000;0.4103;1.4161;
837.0000;0.4111;1.4138;
837.3000;0.4111;1.4068;
837.6000;0.4070;1.3997;
837.9000;0.4111;1.4138;
838.2000;0.4103;1.4232;
838.5000;0.4103;1.4232;
838.8000;0.4111;1.4255;
839.1000;0.4086;1.4185;
839.4000;0.4103;1.4255;
839.7000;0.4111;1.4278;
840.0000;0.4062;1.4114;
840.3000;0.4103;1.4232;
840.6000;0.4070;1.4232;
840.9000;0.4111;1.4372;
841.2000;0.4103;1.4442;
841.5000;0.4111;1.4395;
841.8000;0.4086;1.4255;
842.1000;0.4111;1.4302;
842.4000;0.4103;1.4349;
842.7000;0.4111;1.4325;
843.0000;0.4127;1.4395;
843.3000;0.4111;1.4255;
843.6000;0.4111;1.4255;
843.9000;0.4103;1.4208;
844.2000;0.4094;1.4325;
844.5000;0.4086;1.4325;
844.8000;0.4103;1.4395;
845.1000;0.4111;1.4466;
845.4000;0.4086;1.4372;
845.7000;0.4103;1.4372;
846.0000;0.4094;1.4325;
846.3000;0.4094;1.4302;
846.6000;0.4103;1.4349;
846.9000;0.4111;1.4442;
847.2000;0.4111;1.4466;
847.5000;0.4111;1.4536;
847.8000;0.4103;1.4583;
848.1000;0.4094;1.4512;
848.4000;0.4111;1.4489;
848.7000;0.4086;1.4419;
849.0000;0.4070;1.4372;
849.3000;0.4094;1.4466;
849.6000;0.4103;1.4442;
849.9000;0.4103;1.4395;
850.2000;0.4094;1.4349;
850.5000;0.4127;1.4442;
850.8000;0.4103;1.4349;
851.1000;0.4103;1.4325;
851.4000;0.4078;1.4278;
851.7000;0.4086;1.4208;
852.0000;0.4086;1.4278;
852.3000;0.4111;1.4278;
852.6000;0.4103;1.4372;
852.9000;0.4070;1.4372;
853.2000;0.4119;1.4512;
853.5000;0.4103;1.4536;
853.8000;0.4086;1.4536;
854.1000;0.4070;1.4583;
854.4000;0.4135;1.4653;
854.7000;0.4086;1.4489;
855.0000;0.4111;1.4606;
855.3000;0.4094;1.4466;
855.6000;0.4062;1.4419;
855.9000;0.4078;1.4372;
856.2000;0.4086;1.4395;
856.5000;0.4103;1.4489;
856.8000;0.4168;1.4676;
857.1000;0.4021;1.4349;
857.4000;0.4103;1.4512;
857.7000;0.4013;1.4255;
858.0000;0.4094;1.4489;
858.3000;0.4086;1.4442;
858.6000;0.4054;1.4536;
858.9000;0.4135;1.4723;
859.2000;0.4094;1.4536;
859.5000;0.4070;1.4466;
859.8000;0.4094;1.4466;
860.1000;0.4127;1.4583;
860.4000;0.4094;1.4466;
860.7000;0.4054;1.4372;
861.0000;0.4094;1.4512;
861.3000;0.4111;1.4512;
861.6000;0.4021;1.4349;
861.9000;0.4127;1.4629;
862.2000;0.4086;1.4629;
862.5000;0.4111;1.4583;
862.8000;0.4103;1.4536;
863.1000;0.4094;1.4395;
863.4000;0.4029;1.4325;
863.7000;0.4086;1.4489;
864.0000;0.4103;1.4536;
864.3000;0.4054;1.4372;
864.6000;0.4086;1.4395;
864.9000;0.4094;1.4442;
865.2000;0.4094;1.4512;
865.5000;0.4086;1.4536;
865.8000;0.4078;1.4466;
866.1000;0.4103;1.4512;
866.4000;0.4103;1.4395;
866.7000;0.4086;1.4349;
867.0000;0.4111;1.4349;
867.3000;0.4062;1.4302;
867.6000;0.4103;1.4372;
867.9000;0.4094;1.4208;
868.2000;0.4086;1.4208;
868.5000;0.4078;1.4232;
868.8000;0.3980;1.3974;
869.1000;0.4029;1.4114;
869.4000;0.4086;1.4208;
869.7000;0.4094;1.4325;
870.0000;0.4029;1.4349;
870.3000;0.4078;1.4372;
870.6000;0.4070;1.4349;
870.9000;0.4029;1.4208;
871.2000;0.4062;1.4372;
871.5000;0.4086;1.4536;
871.8000;0.4070;1.4466;
872.1000;0.4094;1.4466;
872.4000;0.4111;1.4489;
872.7000;0.4094;1.4395;
873.0000;0.4094;1.4349;
873.3000;0.4103;1.4536;
873.6000;0.4094;1.4559;
873.9000;0.4094;1.4489;
874.2000;0.4078;1.4442;
874.5000;0.4062;1.4395;
874.8000;0.4078;1.4325;
875.1000;0.4086;1.4349;
875.4000;0.4037;1.4278;
875.7000;0.4094;1.4442;
876.0000;0.4086;1.4466;
876.3000;0.3989;1.4161;
876.6000;0.4103;1.4466;
876.9000;0.4094;1.4466;
877.2000;0.4070;1.4466;
877.5000;0.4078;1.4466;
877.8000;0.4103;1.4489;
878.1000;0.4005;1.4161;
878.4000;0.4192;1.4653;
878.7000;0.4094;1.4442;
879.0000;0.4094;1.4489;
879.3000;0.4135;1.4536;
879.6000;0.4021;1.4232;
879.9000;0.4086;1.4395;
880.2000;0.4094;1.4349;
880.5000;0.4094;1.4372;
880.8000;0.4160;1.4559;
881.1000;0.4029;1.4255;
881.4000;0.4078;1.4466;
881.7000;0.4111;1.4512;
882.0000;0.4111;1.4466;
882.3000;0.4094;1.4466;
882.6000;0.4135;1.4559;
882.9000;0.4070;1.4419;
883.2000;0.4062;1.4466;
883.5000;0.4062;1.4442;
883.8000;0.4086;1.4489;
884.1000;0.4094;1.4583;
884.4000;0.4094;1.4512;
884.7000;0.4086;1.4489;
885.0000;0.4062;1.4512;
885.3000;0.4086;1.4583;
885.6000;0.4094;1.4583;
885.9000;0.4151;1.4723;
886.2000;0.4062;1.4466;
886.5000;0.4086;1.4489;
886.8000;0.4103;1.4536;
887.1000;0.4078;1.4419;
887.4000;0.4046;1.4349;
887.7000;0.4094;1.4512;
888.0000;0.4070;1.4559;
888.3000;0.4078;1.4489;
888.6000;0.4086;1.4512;
888.9000;0.4119;1.4629;
889.2000;0.4086;1.4489;
889.5000;0.4062;1.4419;
889.8000;0.4094;1.4512;
890.1000;0.4070;1.4653;
890.4000;0.4127;1.4723;
890.7000;0.4078;1.4700;
891.0000;0.4070;1.4723;
891.3000;0.4127;1.4887;
891.6000;0.4078;1.4723;
891.9000;0.4078;1.4817;
892.2000;0.4086;1.4817;
892.5000;0.4078;1.4746;
892.8000;0.4078;1.4723;
893.1000;0.4070;1.4746;
893.4000;0.4070;1.4700;
893.7000;0.4062;1.4723;
894.0000;0.4086;1.4793;
894.3000;0.4078;1.4676;
894.6000;0.4078;1.4676;
894.9000;0.4086;1.4629;
895.2000;0.4135;1.4723;
895.5000;0.4094;1.4606;
895.8000;0.4127;1.4770;
896.1000;0.4086;1.4746;
896.4000;0.4070;1.4653;
896.7000;0.4078;1.4676;
897.0000;0.4005;1.4489;
897.3000;0.4078;1.4629;
897.6000;0.4070;1.4559;
897.9000;0.4062;1.4606;
898.2000;0.4054;1.4466;
898.5000;0.4086;1.4489;
898.8000;0.4046;1.4325;
899.1000;0.4062;1.4442;
899.4000;0.4086;1.4489;
899.7000;0.4062;1.4466;
900.0000;0.4078;1.4419;
900.3000;0.4086;1.4489;
900.6000;0.4086;1.4512;
900.9000;0.4086;1.4536;
901.2000;0.4078;1.4583;
901.5000;0.4070;1.4676;
901.8000;0.4070;1.4700;
902.1000;0.4151;1.4864;
902.4000;0.4062;1.4512;
902.7000;0.4103;1.4512;
903.0000;0.4078;1.4489;
903.3000;0.4086;1.4559;
903.6000;0.4094;1.4559;
903.9000;0.4094;1.4536;
904.2000;0.4070;1.4466;
904.5000;0.4070;1.4466;
904.8000;0.4078;1.4512;
905.1000;0.4070;1.4559;
905.4000;0.4086;1.4676;
905.7000;0.4054;1.4629;
906.0000;0.4062;1.4606;
906.3000;0.4046;1.4372;
906.6000;0.4070;1.4349;
906.9000;0.4078;1.4325;
907.2000;0.4078;1.4395;
907.5000;0.4094;1.4512;
907.8000;0.4078;1.4419;
908.1000;0.4127;1.4583;
908.4000;0.3997;1.4302;
908.7000;0.4078;1.4302;
909.0000;0.4054;1.4325;
909.3000;0.4070;1.4395;
909.6000;0.4054;1.4232;
909.9000;0.4127;1.4442;
910.2000;0.4054;1.4278;
910.5000;0.4021;1.4138;
910.8000;0.4046;1.4232;
911.1000;0.4037;1.4161;
911.4000;0.4070;1.4302;
911.7000;0.4078;1.4349;
912.0000;0.4062;1.4395;
912.3000;0.4054;1.4442;
912.6000;0.4070;1.4536;
912.9000;0.4078;1.4536;
913.2000;0.4086;1.4559;
913.5000;0.4094;1.4583;
913.8000;0.4070;1.4512;
914.1000;0.4094;1.4512;
914.4000;0.4086;1.4466;
914.7000;0.4070;1.4419;
915.0000;0.4119;1.4536;
915.3000;0.4046;1.4395;
915.6000;0.4062;1.4278;
915.9000;0.4070;1.4278;
916.2000;0.4062;1.4372;
916.5000;0.4062;1.4372;
916.8000;0.4062;1.4419;
917.1000;0.4029;1.4349;
917.4000;0.4078;1.4442;
917.7000;0.4062;1.4442;
918.0000;0.4070;1.4395;
918.3000;0.4070;1.4395;
918.6000;0.4078;1.4349;
918.9000;0.4078;1.4349;
919.2000;0.4127;1.4442;
919.5000;0.4078;1.4302;
919.8000;0.4111;1.4395;
920.1000;0.4078;1.4302;
920.4000;0.4062;1.4278;
920.7000;0.4078;1.4325;
921.0000;0.4070;1.4372;
921.3000;0.4070;1.4395;
921.6000;0.4070;1.4395;
921.9000;0.4062;1.4395;
922.2000;0.4119;1.4559;
922.5000;0.4070;1.4466;
922.8000;0.4078;1.4536;
923.1000;0.4054;1.4466;
923.4000;0.4078;1.4536;
923.7000;0.4013;1.4419;
924.0000;0.4046;1.4442;
924.3000;0.4037;1.4419;
924.6000;0.4054;1.4395;
924.9000;0.4070;1.4419;
925.2000;0.4086;1.4489;
925.5000;0.4062;1.4395;
925.8000;0.4062;1.4349;
926.1000;0.4086;1.4419;
926.4000;0.4046;1.4419;
926.7000;0.4070;1.4536;
927.0000;0.4046;1.4512;
927.3000;0.4054;1.4536;
927.6000;0.4005;1.4442;
927.9000;0.4086;1.4653;
928.2000;0.4086;1.4606;
928.5000;0.4046;1.4489;
928.8000;0.4054;1.4536;
929.1000;0.4086;1.4536;
929.4000;0.4054;1.4512;
929.7000;0.4054;1.4606;
930.0000;0.4037;1.4583;
930.3000;0.4078;1.4653;
930.6000;0.4062;1.4653;
930.9000;0.4005;1.4559;
931.2000;0.4054;1.4653;
931.5000;0.4078;1.4700;
931.8000;0.4062;1.4629;
932.1000;0.4054;1.4606;
932.4000;0.4013;1.4489;
932.7000;0.4070;1.4583;
933.0000;0.4070;1.4512;
933.3000;0.4054;1.4512;
933.6000;0.4078;1.4559;
933.9000;0.4062;1.4442;
934.2000;0.4054;1.4372;
934.5000;0.4062;1.4395;
934.8000;0.4078;1.4395;
935.1000;0.4078;1.4372;
935.4000;0.4070;1.4185;
935.7000;0.4070;1.4138;
936.0000;0.4070;1.4114;
936.3000;0.4062;1.4091;
936.6000;0.4086;1.4278;
936.9000;0.4054;1.4278;
937.2000;0.4086;1.4349;
937.5000;0.4054;1.4278;
937.8000;0.4054;1.4372;
938.1000;0.4111;1.4583;
938.4000;0.4103;1.4653;
938.7000;0.4070;1.4629;
939.0000;0.4062;1.4629;
939.3000;0.4070;1.4606;
939.6000;0.4046;1.4489;
939.9000;0.4070;1.4489;
940.2000;0.4054;1.4442;
940.5000;0.4037;1.4419;
940.8000;0.4062;1.4489;
941.1000;0.4111;1.4629;
941.4000;0.4037;1.4536;
941.7000;0.4037;1.4512;
942.0000;0.4046;1.4512;
942.3000;0.4078;1.4489;
942.6000;0.4054;1.4466;
942.9000;0.4078;1.4536;
943.2000;0.4086;1.4583;
943.5000;0.4086;1.4676;
943.8000;0.3980;1.4325;
944.1000;0.4070;1.4489;
944.4000;0.4054;1.4419;
944.7000;0.4054;1.4419;
945.0000;0.4021;1.4349;
945.3000;0.4070;1.4442;
945.6000;0.4037;1.4442;
945.9000;0.4029;1.4536;
946.2000;0.4070;1.4653;
946.5000;0.4054;1.4653;
946.8000;0.4046;1.4700;
947.1000;0.4054;1.4723;
947.4000;0.4029;1.4700;
947.7000;0.4029;1.4676;
948.0000;0.4046;1.4676;
948.3000;0.4046;1.4559;
948.6000;0.4054;1.4512;
948.9000;0.4037;1.4536;
949.2000;0.4062;1.4559;
949.5000;0.4005;1.4466;
949.8000;0.4046;1.4583;
950.1000;0.4037;1.4559;
950.4000;0.4029;1.4442;
950.7000;0.4078;1.4442;
951.0000;0.4062;1.4442;
951.3000;0.4046;1.4419;
951.6000;0.4037;1.4372;
951.9000;0.4062;1.4442;
952.2000;0.4054;1.4419;
952.5000;0.4037;1.4325;
952.8000;0.4054;1.4442;
953.1000;0.4054;1.4466;
953.4000;0.4062;1.4559;
953.7000;0.4037;1.4653;
954.0000;0.4062;1.4770;
954.3000;0.4054;1.4723;
954.6000;0.4070;1.4770;
954.9000;0.4143;1.4957;
955.2000;0.4046;1.4746;
955.5000;0.4046;1.4746;
955.8000;0.4062;1.4770;
956.1000;0.4054;1.4723;
956.4000;0.4054;1.4723;
956.7000;0.4054;1.4793;
957.0000;0.4013;1.4676;
957.3000;0.4062;1.4583;
957.6000;0.4062;1.4466;
957.9000;0.4037;1.4466;
958.2000;0.4070;1.4489;
958.5000;0.4103;1.4700;
958.8000;0.4062;1.4606;
959.1000;0.4054;1.4606;
959.4000;0.4054;1.4512;
959.7000;0.4054;1.4583;
960.0000;0.4062;1.4559;
960.3000;0.4005;1.4372;
960.6000;0.4054;1.4606;
960.9000;0.4054;1.4653;
961.2000;0.4062;1.4606;
961.5000;0.4029;1.4606;
961.8000;0.4111;1.4770;
962.1000;0.4062;1.4676;
962.4000;0.4037;1.4606;
962.7000;0.4046;1.4583;
963.0000;0.4062;1.4559;
963.3000;0.4046;1.4512;
963.6000;0.4078;1.4583;
963.9000;0.4070;1.4629;
964.2000;0.4054;1.4583;
964.5000;0.4046;1.4489;
964.8000;0.4062;1.4512;
965.1000;0.4062;1.4442;
965.4000;0.4070;1.4442;
965.7000;0.4037;1.4419;
966.0000;0.4070;1.4442;
966.3000;0.4054;1.4489;
966.6000;0.4054;1.4536;
966.9000;0.4062;1.4653;
967.2000;0.4029;1.4629;
967.5000;0.4013;1.4583;
967.8000;0.4013;1.4583;
968.1000;0.4037;1.4606;
968.4000;0.4037;1.4583;
968.7000;0.4037;1.4606;
969.0000;0.4046;1.4536;
969.3000;0.4037;1.4559;
969.6000;0.4054;1.4559;
969.9000;0.4054;1.4536;
970.2000;0.4021;1.4512;
970.5000;0.4021;1.4466;
970.8000;0.4037;1.4466;
971.1000;0.3972;1.4278;
971.4000;0.4046;1.4512;
971.7000;0.4037;1.4559;
972.0000;0.4054;1.4559;
972.3000;0.4111;1.4676;
972.6000;0.4029;1.4512;
972.9000;0.4070;1.4629;
973.2000;0.4078;1.4629;
973.5000;0.4046;1.4395;
973.8000;0.4062;1.4419;
974.1000;0.4062;1.4512;
974.4000;0.4078;1.4536;
974.7000;0.4062;1.4512;
975.0000;0.4054;1.4536;
975.3000;0.4062;1.4512;
975.6000;0.4046;1.4583;
975.9000;0.3989;1.4466;
976.2000;0.4062;1.4676;
976.5000;0.4037;1.4770;
976.8000;0.4046;1.4793;
977.1000;0.4062;1.4746;
977.4000;0.4046;1.4723;
977.7000;0.4029;1.4676;
978.0000;0.3997;1.4653;
978.3000;0.4037;1.4653;
978.6000;0.4005;1.4559;
978.9000;0.4037;1.4583;
979.2000;0.4037;1.4606;
979.5000;0.4037;1.4629;
979.8000;0.4062;1.4629;
980.1000;0.4046;1.4606;
980.4000;0.4029;1.4466;
980.7000;0.4029;1.4419;
981.0000;0.4029;1.4419;
981.3000;0.4062;1.4489;
981.6000;0.4127;1.4723;
981.9000;0.4070;1.4489;
982.2000;0.4062;1.4559;
982.5000;0.4086;1.4559;
982.8000;0.4062;1.4466;
983.1000;0.4029;1.4489;
983.4000;0.4062;1.4606;
983.7000;0.4062;1.4583;
984.0000;0.4029;1.4466;
984.3000;0.4029;1.4372;
984.6000;0.4029;1.4466;
984.9000;0.4029;1.4489;
985.2000;0.4054;1.4606;
985.5000;0.4070;1.4583;
985.8000;0.4054;1.4559;
986.1000;0.4029;1.4489;
986.4000;0.4078;1.4559;
986.7000;0.4046;1.4583;
987.0000;0.4054;1.4559;
987.3000;0.4062;1.4653;
987.6000;0.4037;1.4700;
987.9000;0.4054;1.4723;
988.2000;0.4037;1.4536;
988.5000;0.4070;1.4512;
988.8000;0.4037;1.4442;
989.1000;0.4078;1.4466;
989.4000;0.4094;1.4442;
989.7000;0.4094;1.4466;
990.0000;0.4054;1.4325;
990.3000;0.4037;1.4278;
990.6000;0.4005;1.4185;
990.9000;0.4086;1.4442;
991.2000;0.4070;1.4466;
991.5000;0.4013;1.4395;
991.8000;0.4078;1.4559;
992.1000;0.4005;1.4419;
992.4000;0.4103;1.4676;
992.7000;0.4078;1.4559;
993.0000;0.4070;1.4512;
993.3000;0.4070;1.4466;
993.6000;0.4037;1.4442;
993.9000;0.4046;1.4442;
994.2000;0.4094;1.4559;
994.5000;0.4070;1.4489;
994.8000;0.4070;1.4583;
995.1000;0.4054;1.4512;
995.4000;0.4062;1.4559;
995.7000;0.4021;1.4629;
996.0000;0.4021;1.4653;
996.3000;0.4046;1.4676;
996.6000;0.4070;1.4629;
996.9000;0.4046;1.4606;
997.2000;0.4054;1.4583;
997.5000;0.4013;1.4489;
997.8000;0.4013;1.4512;
998.1000;0.4046;1.4583;
998.4000;0.4021;1.4583;
998.7000;0.4046;1.4583;
999.0000;0.4037;1.4466;
999.3000;0.4037;1.4349;
999.6000;0.4037;1.4395;
999.9000;0.4046;1.4419;
1000.2000;0.4054;1.4419;
1000.5000;0.4062;1.4466;
1000.8000;0.4062;1.4466;
1001.1000;0.4078;1.4606;
1001.4000;0.4046;1.4536;
1001.7000;0.4062;1.4583;
1002.0000;0.4054;1.4583;
1002.3000;0.4046;1.4536;
1002.6000;0.4062;1.4419;
1002.9000;0.4029;1.4372;
1003.2000;0.4021;1.4442;
1003.5000;0.4021;1.4372;
1003.8000;0.4021;1.4372;
1004.1000;0.4021;1.4372;
1004.4000;0.4037;1.4419;
1004.7000;0.4037;1.4419;
1005.0000;0.4029;1.4395;
1005.3000;0.4054;1.4466;
1005.6000;0.4005;1.4325;
1005.9000;0.4037;1.4395;
1006.2000;0.4046;1.4512;
1006.5000;0.4037;1.4419;
1006.8000;0.4046;1.4395;
1007.1000;0.4029;1.4325;
1007.4000;0.4046;1.4395;
1007.7000;0.4021;1.4395;
1008.0000;0.4054;1.4442;
1008.3000;0.4054;1.4512;
1008.6000;0.4021;1.4512;
1008.9000;0.4037;1.4489;
1009.2000;0.3989;1.4302;
1009.5000;0.4046;1.4419;
1009.8000;0.4029;1.4325;
1010.1000;0.4046;1.4395;
1010.4000;0.4046;1.4466;
1010.7000;0.4054;1.4419;
1011.0000;0.4046;1.4325;
1011.3000;0.3972;1.4232;
1011.6000;0.4021;1.4372;
1011.9000;0.4029;1.4349;
1012.2000;0.4037;1.4349;
1012.5000;0.4046;1.4278;
1012.8000;0.4037;1.4255;
1013.1000;0.4037;1.4325;
1013.4000;0.4046;1.4442;
1013.7000;0.4029;1.4395;
1014.0000;0.4062;1.4419;
1014.3000;0.3980;1.4325;
1014.6000;0.4094;1.4606;
1014.9000;0.4029;1.4419;
1015.2000;0.4037;1.4419;
1015.5000;0.4046;1.4466;
1015.8000;0.4021;1.4489;
1016.1000;0.4086;1.4676;
1016.4000;0.4094;1.4793;
1016.7000;0.4119;1.4887;
1017.0000;0.4054;1.4746;
1017.3000;0.4037;1.4676;
1017.6000;0.4005;1.4559;
1017.9000;0.4037;1.4629;
1018.2000;0.4029;1.4629;
1018.5000;0.4037;1.4653;
1018.8000;0.4046;1.4700;
1019.1000;0.4037;1.4606;
1019.4000;0.4037;1.4606;
1019.7000;0.4029;1.4723;
1020.0000;0.4046;1.4676;
1020.3000;0.4037;1.4629;
1020.6000;0.4046;1.4629;
1020.9000;0.4005;1.4489;
1021.2000;0.4046;1.4606;
1021.5000;0.4037;1.4512;
1021.8000;0.4070;1.4606;
1022.1000;0.4062;1.4536;
1022.4000;0.4054;1.4559;
1022.7000;0.4029;1.4512;
1023.0000;0.4062;1.4583;
1023.3000;0.4046;1.4536;
1023.6000;0.4046;1.4536;
1023.9000;0.4054;1.4512;
1024.2000;0.4037;1.4466;
1024.5000;0.3980;1.4349;
1024.8000;0.4046;1.4512;
1025.1000;0.4046;1.4583;
1025.4000;0.4037;1.4489;
1025.7000;0.4029;1.4349;
1026.0000;0.4054;1.4372;
1026.3000;0.4062;1.4395;
1026.6000;0.4046;1.4349;
1026.9000;0.4029;1.4302;
1027.2000;0.4062;1.4442;
1027.5000;0.4046;1.4372;
1027.8000;0.4037;1.4419;
1028.1000;0.4037;1.4395;
1028.4000;0.4021;1.4466;
1028.7000;0.4029;1.4559;
1029.0000;0.4127;1.4840;
1029.3000;0.4037;1.4606;
1029.6000;0.4037;1.4629;
1029.9000;0.4062;1.4676;
1030.2000;0.3940;1.4302;
1030.5000;0.4037;1.4536;
1030.8000;0.4021;1.4536;
1031.1000;0.4054;1.4559;
1031.4000;0.4021;1.4466;
1031.7000;0.4029;1.4536;
1032.0000;0.4037;1.4606;
1032.3000;0.3940;1.4325;
1032.6000;0.4054;1.4583;
1032.9000;0.4054;1.4583;
1033.2000;0.4054;1.4536;
1033.5000;0.4046;1.4536;
1033.8000;0.4160;1.4770;
1034.1000;0.4046;1.4442;
1034.4000;0.4046;1.4512;
1034.7000;0.4046;1.4442;
1035.0000;0.4021;1.4395;
1035.3000;0.4029;1.4466;
1035.6000;0.4046;1.4489;
1035.9000;0.4029;1.4512;
1036.2000;0.4046;1.4583;
1036.5000;0.4037;1.4629;
1036.8000;0.4070;1.4653;
1037.1000;0.4062;1.4559;
1037.4000;0.4037;1.4559;
1037.7000;0.4013;1.4489;
1038.0000;0.4029;1.4536;
1038.3000;0.4021;1.4536;
1038.6000;0.4062;1.4583;
1038.9000;0.4037;1.4559;
1039.2000;0.4021;1.4583;
1039.5000;0.3989;1.4489;
1039.8000;0.4046;1.4536;
1040.1000;0.4046;1.4489;
1040.4000;0.4046;1.4489;
1040.7000;0.4021;1.4466;
1041.0000;0.4021;1.4536;
1041.3000;0.4029;1.4489;
1041.6000;0.4021;1.4512;
1041.9000;0.4021;1.4536;
1042.2000;0.4037;1.4629;
1042.5000;0.4013;1.4606;
1042.8000;0.4013;1.4606;
1043.1000;0.4046;1.4723;
1043.4000;0.4029;1.4723;
1043.7000;0.4005;1.4676;
1044.0000;0.4037;1.4583;
1044.3000;0.4029;1.4559;
1044.6000;0.4037;1.4512;
1044.9000;0.4029;1.4442;
1045.2000;0.4062;1.4512;
1045.5000;0.4086;1.4559;
1045.8000;0.4037;1.4512;
1046.1000;0.4094;1.4583;
1046.4000;0.4046;1.4419;
1046.7000;0.4062;1.4466;
1047.0000;0.4062;1.4466;
1047.3000;0.4037;1.4442;
1047.6000;0.3997;1.4442;
1047.9000;0.3997;1.4536;
1048.2000;0.4046;1.4559;
1048.5000;0.4046;1.4442;
1048.8000;0.4029;1.4349;
1049.1000;0.4013;1.4419;
1049.4000;0.4021;1.4395;
1049.7000;0.4037;1.4395;
1050.0000;0.4005;1.4466;
1050.3000;0.4062;1.4512;
1050.6000;0.4021;1.4419;
1050.9000;0.4037;1.4466;
1051.2000;0.4013;1.4466;
1051.5000;0.4054;1.4559;
1051.8000;0.4029;1.4512;
1052.1000;0.4021;1.4489;
1052.4000;0.4013;1.4629;
1052.7000;0.4054;1.4629;
1053.0000;0.4037;1.4629;
1053.3000;0.4029;1.4466;
1053.6000;0.4029;1.4466;
1053.9000;0.4046;1.4466;
1054.2000;0.4103;1.4583;
1054.5000;0.4037;1.4419;
1054.8000;0.4046;1.4395;
1055.1000;0.4046;1.4442;
1055.4000;0.4046;1.4466;
1055.7000;0.4046;1.4442;
1056.0000;0.4029;1.4512;
1056.3000;0.4021;1.4466;
1056.6000;0.4021;1.4512;
1056.9000;0.4046;1.4583;
1057.2000;0.4037;1.4536;
1057.5000;0.4046;1.4559;
1057.8000;0.3989;1.4489;
1058.1000;0.4029;1.4466;
1058.4000;0.4037;1.4512;
1058.7000;0.4070;1.4583;
1059.0000;0.4029;1.4466;
1059.3000;0.4037;1.4512;
1059.6000;0.4037;1.4466;
1059.9000;0.4037;1.4536;
1060.2000;0.4046;1.4606;
1060.5000;0.4046;1.4512;
1060.8000;0.4029;1.4419;
1061.1000;0.4013;1.4278;
1061.4000;0.3997;1.4255;
1061.7000;0.4029;1.4349;
1062.0000;0.4046;1.4489;
1062.3000;0.4021;1.4466;
1062.6000;0.4046;1.4536;
1062.9000;0.4127;1.4793;
1063.2000;0.4046;1.4629;
1063.5000;0.4029;1.4559;
1063.8000;0.4037;1.4653;
1064.1000;0.4054;1.4559;
1064.4000;0.4062;1.4653;
1064.7000;0.4029;1.4489;
1065.0000;0.4037;1.4512;
1065.3000;0.4127;1.4817;
1065.6000;0.4037;1.4606;
1065.9000;0.4054;1.4676;
1066.2000;0.4029;1.4606;
1066.5000;0.4037;1.4559;
1066.8000;0.4029;1.4536;
1067.1000;0.4062;1.4629;
1067.4000;0.4054;1.4653;
1067.7000;0.4005;1.4512;
1068.0000;0.4054;1.4606;
1068.3000;0.4046;1.4559;
1068.6000;0.4070;1.4559;
1068.9000;0.4062;1.4559;
1069.2000;0.4054;1.4629;
1069.5000;0.4103;1.4653;
1069.8000;0.4103;1.4653;
1070.1000;0.4029;1.4419;
1070.4000;0.4037;1.4419;
1070.7000;0.4037;1.4419;
1071.0000;0.4029;1.4419;
1071.3000;0.4046;1.4395;
1071.6000;0.3972;1.4255;
1071.9000;0.4021;1.4395;
1072.2000;0.4037;1.4442;
1072.5000;0.4029;1.4442;
1072.8000;0.4013;1.4442;
1073.1000;0.4054;1.4512;
1073.4000;0.4037;1.4466;
1073.7000;0.4029;1.4395;
1074.0000;0.4021;1.4442;
1074.3000;0.4029;1.4466;
1074.6000;0.4037;1.4512;
1074.9000;0.4037;1.4536;
1075.2000;0.4021;1.4512;
1075.5000;0.4013;1.4419;
1075.8000;0.4029;1.4512;
1076.1000;0.4029;1.4559;
1076.4000;0.3997;1.4442;
1076.7000;0.4037;1.4489;
1077.0000;0.4037;1.4489;
1077.3000;0.4021;1.4489;
1077.6000;0.4070;1.4559;
1077.9000;0.3997;1.4372;
1078.2000;0.4070;1.4536;
1078.5000;0.4037;1.4512;
1078.8000;0.4021;1.4489;
1079.1000;0.4037;1.4583;
1079.4000;0.4037;1.4629;
1079.7000;0.4054;1.4676;
1080.0000;0.3997;1.4442;
1080.3000;0.4029;1.4489;
1080.6000;0.4037;1.4466;
1080.9000;0.4029;1.4442;
1081.2000;0.4070;1.4606;
1081.5000;0.4037;1.4489;
1081.8000;0.4046;1.4536;
1082.1000;0.4021;1.4512;
1082.4000;0.4021;1.4512;
1082.7000;0.4005;1.4466;
1083.0000;0.4029;1.4536;
1083.3000;0.4005;1.4489;
1083.6000;0.4086;1.4676;
1083.9000;0.3989;1.4419;
1084.2000;0.4037;1.4536;
1084.5000;0.4046;1.4606;
1084.8000;0.4046;1.4536;
1085.1000;0.4021;1.4536;
1085.4000;0.4086;1.4723;
1085.7000;0.4005;1.4559;
1086.0000;0.4046;1.4653;
1086.3000;0.4037;1.4629;
1086.6000;0.3989;1.4466;
1086.9000;0.4054;1.4559;
1087.2000;0.3964;1.4349;
1087.5000;0.4021;1.4512;
1087.8000;0.4111;1.4700;
1088.1000;0.4103;1.4653;
1088.4000;0.4029;1.4395;
1088.7000;0.4046;1.4489;
1089.0000;0.4037;1.4419;
1089.3000;0.4078;1.4559;
1089.6000;0.4013;1.4372;
1089.9000;0.3964;1.4232;
1090.2000;0.4029;1.4489;
1090.5000;0.4013;1.4559;
1090.8000;0.4013;1.4583;
1091.1000;0.4037;1.4676;
1091.4000;0.4029;1.4700;
1091.7000;0.4046;1.4746;
1092.0000;0.4021;1.4653;
1092.3000;0.4021;1.4606;
1092.6000;0.4021;1.4676;
1092.9000;0.4046;1.4700;
1093.2000;0.4021;1.4559;
1093.5000;0.4054;1.4676;
1093.8000;0.4029;1.4676;
1094.1000;0.4021;1.4629;
1094.4000;0.4037;1.4629;
1094.7000;0.4037;1.4559;
1095.0000;0.4005;1.4419;
1095.3000;0.4021;1.4419;
1095.6000;0.4021;1.4466;
1095.9000;0.4046;1.4536;
1096.2000;0.4037;1.4583;
1096.5000;0.4046;1.4536;
1096.8000;0.4046;1.4372;
1097.1000;0.4037;1.4278;
1097.4000;0.4054;1.4278;
1097.7000;0.4054;1.4161;
1098.0000;0.4046;1.4208;
1098.3000;0.4029;1.4255;
1098.6000;0.4037;1.4302;
1098.9000;0.4021;1.4372;
1099.2000;0.4037;1.4489;
1099.5000;0.4037;1.4442;
1099.8000;0.4037;1.4466;
1100.1000;0.4013;1.4325;
1100.4000;0.4013;1.4302;
1100.7000;0.4054;1.4395;
1101.0000;0.4021;1.4278;
1101.3000;0.4062;1.4349;
1101.6000;0.4021;1.4255;
1101.9000;0.4021;1.4255;
1102.2000;0.3997;1.4232;
1102.5000;0.4037;1.4349;
1102.8000;0.4037;1.4325;
1103.1000;0.4037;1.4349;
1103.4000;0.4029;1.4349;
1103.7000;0.4013;1.4325;
1104.0000;0.4029;1.4419;
1104.3000;0.4037;1.4559;
1104.6000;0.4021;1.4583;
1104.9000;0.4029;1.4606;
1105.2000;0.4054;1.4559;
1105.5000;0.4013;1.4512;
1105.8000;0.4037;1.4559;
1106.1000;0.4021;1.4536;
1106.4000;0.4021;1.4512;
1106.7000;0.4029;1.4536;
1107.0000;0.3997;1.4489;
1107.3000;0.3997;1.4395;
1107.6000;0.4013;1.4395;
1107.9000;0.4021;1.4512;
1108.2000;0.4037;1.4536;
1108.5000;0.4062;1.4653;
1108.8000;0.4037;1.4606;
1109.1000;0.4021;1.4512;
1109.4000;0.4037;1.4559;
1109.7000;0.4029;1.4653;
1110.0000;0.4046;1.4676;
1110.3000;0.3997;1.4583;
1110.6000;0.4062;1.4770;
1110.9000;0.3964;1.4466;
1111.2000;0.3980;1.4442;
1111.5000;0.4037;1.4512;
1111.8000;0.4037;1.4606;
1112.1000;0.4070;1.4583;
1112.4000;0.4021;1.4536;
1112.7000;0.4037;1.4512;
1113.0000;0.3997;1.4419;
1113.3000;0.4029;1.4442;
1113.6000;0.4021;1.4536;
1113.9000;0.4037;1.4559;
1114.2000;0.4046;1.4559;
1114.5000;0.4021;1.4536;
1114.8000;0.4054;1.4559;
1115.1000;0.4021;1.4489;
1115.4000;0.4021;1.4559;
1115.7000;0.4029;1.4442;
1116.0000;0.4005;1.4395;
1116.3000;0.4013;1.4372;
1116.6000;0.4013;1.4419;
1116.9000;0.4037;1.4442;
1117.2000;0.4029;1.4466;
1117.5000;0.4013;1.4442;
1117.8000;0.4037;1.4606;
1118.1000;0.4029;1.4629;
1118.4000;0.4005;1.4559;
1118.7000;0.4021;1.4512;
1119.0000;0.4029;1.4536;
1119.3000;0.4062;1.4653;
1119.6000;0.4062;1.4676;
1119.9000;0.4037;1.4700;
1120.2000;0.4005;1.4536;
1120.5000;0.4046;1.4512;
1120.8000;0.4062;1.4536;
1121.1000;0.4021;1.4466;
1121.4000;0.4029;1.4559;
1121.7000;0.4037;1.4536;
1122.0000;0.4013;1.4442;
1122.3000;0.4021;1.4372;
1122.6000;0.4021;1.4372;
1122.9000;0.4029;1.4395;
1123.2000;0.4013;1.4489;
1123.5000;0.4021;1.4489;
1123.8000;0.4029;1.4466;
1124.1000;0.4062;1.4583;
1124.4000;0.4021;1.4466;
1124.7000;0.4013;1.4583;
1125.0000;0.4037;1.4583;
1125.3000;0.4037;1.4583;
1125.6000;0.4046;1.4583;
1125.9000;0.4046;1.4583;
1126.2000;0.4013;1.4559;
1126.5000;0.4021;1.4536;
1126.8000;0.4021;1.4536;
1127.1000;0.4021;1.4536;
1127.4000;0.4037;1.4442;
1127.7000;0.4029;1.4395;
1128.0000;0.4037;1.4536;
1128.3000;0.4029;1.4512;
1128.6000;0.4029;1.4466;
1128.9000;0.4046;1.4466;
1129.2000;0.3932;1.4185;
1129.5000;0.4037;1.4372;
1129.8000;0.4013;1.4442;
1130.1000;0.4037;1.4489;
1130.4000;0.3989;1.4419;
1130.7000;0.4013;1.4536;
1131.0000;0.4013;1.4583;
1131.3000;0.4013;1.4700;
1131.6000;0.4013;1.4653;
1131.9000;0.4029;1.4676;
1132.2000;0.4013;1.4700;
1132.5000;0.3915;1.4466;
1132.8000;0.4013;1.4653;
1133.1000;0.4021;1.4676;
1133.4000;0.4029;1.4629;
1133.7000;0.4021;1.4653;
1134.0000;0.4029;1.4606;
1134.3000;0.4037;1.4629;
1134.6000;0.4029;1.4629;
1134.9000;0.4013;1.4512;
1135.2000;0.4029;1.4536;
1135.5000;0.3997;1.4512;
1135.8000;0.4005;1.4512;
1136.1000;0.3972;1.4442;
1136.4000;0.4021;1.4559;
1136.7000;0.4054;1.4559;
1137.0000;0.4078;1.4676;
1137.3000;0.3989;1.4466;
1137.6000;0.4021;1.4442;
1137.9000;0.4021;1.4395;
1138.2000;0.4005;1.4302;
1138.5000;0.4046;1.4395;
1138.8000;0.4005;1.4372;
1139.1000;0.3972;1.4419;
1139.4000;0.4037;1.4536;
1139.7000;0.4037;1.4606;
1140.0000;0.4046;1.4629;
1140.3000;0.3989;1.4536;
1140.6000;0.3972;1.4489;
1140.9000;0.4013;1.4629;
1141.2000;0.4029;1.4583;
1141.5000;0.3989;1.4419;
1141.8000;0.4029;1.4629;
1142.1000;0.4070;1.4723;
1142.4000;0.4094;1.4723;
1142.7000;0.3989;1.4395;
1143.0000;0.4021;1.4466;
1143.3000;0.4029;1.4466;
1143.6000;0.4021;1.4395;
1143.9000;0.4029;1.4489;
1144.2000;0.4013;1.4512;
1144.5000;0.4013;1.4606;
1144.8000;0.4054;1.4676;
1145.1000;0.3972;1.4466;
1145.4000;0.4037;1.4653;
1145.7000;0.4005;1.4653;
1146.0000;0.4029;1.4770;
1146.3000;0.4005;1.4583;
1146.6000;0.4029;1.4583;
1146.9000;0.4005;1.4559;
1147.2000;0.4103;1.4817;
1147.5000;0.4037;1.4629;
1147.8000;0.4021;1.4653;
1148.1000;0.4029;1.4676;
1148.4000;0.4029;1.4653;
1148.7000;0.4005;1.4629;
1149.0000;0.4013;1.4676;
1149.3000;0.4021;1.4676;
1149.6000;0.3948;1.4606;
1149.9000;0.4021;1.4770;
1150.2000;0.3989;1.4653;
1150.5000;0.4029;1.4770;
1150.8000;0.4078;1.4723;
1151.1000;0.4046;1.4700;
1151.4000;0.4021;1.4653;
1151.7000;0.4037;1.4559;
1152.0000;0.4013;1.4512;
1152.3000;0.4021;1.4512;
1152.6000;0.4029;1.4419;
1152.9000;0.4037;1.4512;
1153.2000;0.4021;1.4512;
1153.5000;0.4029;1.4512;
1153.8000;0.4029;1.4512;
1154.1000;0.4021;1.4442;
1154.4000;0.4029;1.4489;
1154.7000;0.4029;1.4489;
1155.0000;0.4029;1.4512;
1155.3000;0.4078;1.4629;
1155.6000;0.4037;1.4653;
1155.9000;0.4037;1.4676;
1156.2000;0.4005;1.4723;
1156.5000;0.3989;1.4676;
1156.8000;0.3989;1.4700;
1157.1000;0.4021;1.4723;
1157.4000;0.4013;1.4606;
1157.7000;0.4021;1.4512;
1158.0000;0.4021;1.4512;
1158.3000;0.4013;1.4466;
1158.6000;0.4013;1.4395;
1158.9000;0.4013;1.4395;
1159.2000;0.4029;1.4395;
1159.5000;0.4005;1.4302;
1159.8000;0.4029;1.4255;
1160.1000;0.4037;1.4349;
1160.4000;0.4054;1.4372;
1160.7000;0.4029;1.4372;
1161.0000;0.4029;1.4442;
1161.3000;0.4046;1.4325;
1161.6000;0.4013;1.4325;
1161.9000;0.3997;1.4278;
1162.2000;0.4029;1.4372;
1162.5000;0.4021;1.4395;
1162.8000;0.4021;1.4372;
1163.1000;0.4062;1.4466;
1163.4000;0.4037;1.4395;
1163.7000;0.4021;1.4395;
1164.0000;0.4046;1.4419;
1164.3000;0.4029;1.4419;
1164.6000;0.4013;1.4419;
1164.9000;0.4021;1.4325;
1165.2000;0.4029;1.4395;
1165.5000;0.3997;1.4349;
1165.8000;0.4005;1.4466;
1166.1000;0.4021;1.4419;
1166.4000;0.4037;1.4466;
1166.7000;0.4086;1.4606;
1167.0000;0.4021;1.4442;
1167.3000;0.4005;1.4395;
1167.6000;0.4029;1.4419;
1167.9000;0.4029;1.4419;
1168.2000;0.4005;1.4325;
1168.5000;0.3997;1.4372;
1168.8000;0.4005;1.4466;
1169.1000;0.4029;1.4419;
1169.4000;0.4005;1.4395;
1169.7000;0.3989;1.4372;
1170.0000;0.4021;1.4442;
1170.3000;0.3980;1.4372;
1170.6000;0.4029;1.4536;
1170.9000;0.4021;1.4442;
1171.2000;0.4029;1.4512;
1171.5000;0.4029;1.4466;
1171.8000;0.4013;1.4419;
1172.1000;0.4013;1.4395;
1172.4000;0.4005;1.4395;
1172.7000;0.4005;1.4349;
1173.0000;0.4021;1.4442;
1173.3000;0.3997;1.4349;
1173.6000;0.4013;1.4349;
1173.9000;0.4005;1.4302;
1174.2000;0.4021;1.4185;
1174.5000;0.3997;1.4114;
1174.8000;0.4005;1.4114;
1175.1000;0.4005;1.4114;
1175.4000;0.4029;1.4208;
1175.7000;0.4021;1.4161;
1176.0000;0.4013;1.4278;
1176.3000;0.4029;1.4302;
1176.6000;0.4037;1.4278;
1176.9000;0.4046;1.4302;
1177.2000;0.4070;1.4349;
1177.5000;0.4037;1.4325;
1177.8000;0.4021;1.4255;
1178.1000;0.4021;1.4302;
1178.4000;0.4029;1.4419;
1178.7000;0.4021;1.4559;
1179.0000;0.4013;1.4629;
1179.3000;0.4005;1.4536;
1179.6000;0.4021;1.4559;
1179.9000;0.3997;1.4489;
1180.2000;0.4021;1.4512;
1180.5000;0.3932;1.4232;
1180.8000;0.3980;1.4302;
1181.1000;0.4005;1.4302;
1181.4000;0.4013;1.4278;
1181.7000;0.4046;1.4349;
1182.0000;0.4021;1.4395;
1182.3000;0.4021;1.4442;
1182.6000;0.4013;1.4395;
1182.9000;0.4070;1.4559;
1183.2000;0.4013;1.4466;
1183.5000;0.4005;1.4489;
1183.8000;0.4054;1.4606;
1184.1000;0.4054;1.4559;
1184.4000;0.4021;1.4512;
1184.7000;0.4021;1.4536;
1185.0000;0.4037;1.4583;
1185.3000;0.4054;1.4583;
1185.6000;0.3915;1.4302;
1185.9000;0.4005;1.4512;
1186.2000;0.4037;1.4512;
1186.5000;0.4037;1.4512;
1186.8000;0.4037;1.4489;
1187.1000;0.4037;1.4512;
1187.4000;0.4037;1.4442;
1187.7000;0.4037;1.4442;
1188.0000;0.4070;1.4536;
1188.3000;0.3964;1.4302;
1188.6000;0.3997;1.4489;
1188.9000;0.4005;1.4419;
1189.2000;0.4037;1.4419;
1189.5000;0.4046;1.4629;
1189.8000;0.4021;1.4489;
1190.1000;0.4029;1.4442;
1190.4000;0.4021;1.4395;
1190.7000;0.4037;1.4489;
1191.0000;0.4029;1.4466;
1191.3000;0.4029;1.4489;
1191.6000;0.4029;1.4512;
1191.9000;0.4013;1.4419;
1192.2000;0.4029;1.4489;
1192.5000;0.4029;1.4489;
1192.8000;0.4021;1.4372;
1193.1000;0.4021;1.4325;
1193.4000;0.4037;1.4325;
1193.7000;0.4021;1.4232;
1194.0000;0.3997;1.4208;
1194.3000;0.4054;1.4349;
1194.6000;0.4029;1.4302;
1194.9000;0.4021;1.4302;
1195.2000;0.4029;1.4302;
1195.5000;0.4029;1.4325;
1195.8000;0.4046;1.4372;
1196.1000;0.3972;1.4232;
1196.4000;0.4029;1.4372;
1196.7000;0.3972;1.4302;
1197.0000;0.4054;1.4489;
1197.3000;0.4013;1.4349;
1197.6000;0.4029;1.4349;
1197.9000;0.4005;1.4395;
1198.2000;0.4021;1.4466;
1198.5000;0.3997;1.4349;
1198.8000;0.3997;1.4419;
1199.1000;0.4013;1.4512;
1199.4000;0.4037;1.4583;
1199.7000;0.4029;1.4489;
1200.0000;0.4021;1.4489;
1200.3000;0.4078;1.4629;
1200.6000;0.4021;1.4489;
1200.9000;0.4029;1.4419;
1201.2000;0.4037;1.4278;
1201.5000;0.4021;1.4255;
1201.8000;0.4005;1.4255;
1202.1000;0.4029;1.4278;
1202.4000;0.4005;1.4232;
1202.7000;0.3997;1.4208;
1203.0000;0.4005;1.4255;
1203.3000;0.4046;1.4278;
1203.6000;0.3997;1.4255;
1203.9000;0.4005;1.4325;
1204.2000;0.4013;1.4325;
1204.5000;0.4029;1.4442;
1204.8000;0.4021;1.4536;
1205.1000;0.4013;1.4512;
1205.4000;0.4029;1.4489;
1205.7000;0.4013;1.4395;
1206.0000;0.4021;1.4419;
1206.3000;0.4013;1.4349;
1206.6000;0.4037;1.4466;
1206.9000;0.4054;1.4442;
1207.2000;0.4005;1.4349;
1207.5000;0.3997;1.4325;
1207.8000;0.4005;1.4325;
1208.1000;0.4046;1.4395;
1208.4000;0.4013;1.4349;
1208.7000;0.4029;1.4232;
1209.0000;0.4013;1.4302;
1209.3000;0.4013;1.4302;
1209.6000;0.4021;1.4349;
1209.9000;0.4054;1.4489;
1210.2000;0.4005;1.4302;
1210.5000;0.4111;1.4559;
1210.8000;0.4005;1.4302;
1211.1000;0.4013;1.4278;
1211.4000;0.4013;1.4232;
1211.7000;0.4029;1.4255;
1212.0000;0.4094;1.4419;
1212.3000;0.4029;1.4255;
1212.6000;0.4070;1.4349;
1212.9000;0.4029;1.4255;
1213.2000;0.3989;1.4232;
1213.5000;0.4005;1.4255;
1213.8000;0.4013;1.4302;
1214.1000;0.3997;1.4302;
1214.4000;0.4005;1.4232;
1214.7000;0.4005;1.4208;
1215.0000;0.4029;1.4278;
1215.3000;0.4029;1.4278;
1215.6000;0.4021;1.4208;
1215.9000;0.3997;1.4278;
1216.2000;0.4037;1.4278;
1216.5000;0.4037;1.4278;
1216.8000;0.4046;1.4255;
1217.1000;0.4013;1.4208;
1217.4000;0.4013;1.4255;
1217.7000;0.4013;1.4138;
1218.0000;0.4013;1.4185;
1218.3000;0.4013;1.4185;
1218.6000;0.3997;1.4185;
1218.9000;0.4021;1.4278;
1219.2000;0.3964;1.4091;
1219.5000;0.4029;1.4349;
1219.8000;0.4021;1.4349;
1220.1000;0.4021;1.4302;
1220.4000;0.4029;1.4255;
1220.7000;0.4029;1.4255;
1221.0000;0.4054;1.4302;
1221.3000;0.3997;1.4208;
1221.6000;0.4029;1.4255;
1221.9000;0.4021;1.4208;
1222.2000;0.4029;1.4185;
1222.5000;0.4013;1.4161;
1222.8000;0.4013;1.4232;
1223.1000;0.3997;1.4138;
1223.4000;0.4013;1.4091;
1223.7000;0.4005;1.4138;
1224.0000;0.4021;1.4161;
1224.3000;0.4021;1.4185;
1224.6000;0.3989;1.4185;
1224.9000;0.4005;1.4278;
1225.2000;0.4013;1.4302;
1225.5000;0.4021;1.4349;
1225.8000;0.4021;1.4278;
1226.1000;0.4021;1.4161;
1226.4000;0.4037;1.4302;
1226.7000;0.4005;1.4278;
1227.0000;0.4005;1.4325;
1227.3000;0.4062;1.4442;
1227.6000;0.4029;1.4349;
1227.9000;0.4029;1.4325;
1228.2000;0.4021;1.4325;
1228.5000;0.3989;1.4325;
1228.8000;0.4021;1.4419;
1229.1000;0.4021;1.4349;
1229.4000;0.4005;1.4325;
1229.7000;0.4013;1.4302;
1230.0000;0.4005;1.4278;
1230.3000;0.4021;1.4349;
1230.6000;0.4013;1.4255;
1230.9000;0.4005;1.4185;
1231.2000;0.3997;1.4138;
1231.5000;0.4037;1.4232;
1231.8000;0.4021;1.4255;
1232.1000;0.4005;1.4278;
1232.4000;0.4005;1.4278;
1232.7000;0.4078;1.4442;
1233.0000;0.4029;1.4325;
1233.3000;0.4021;1.4278;
1233.6000;0.4037;1.4372;
1233.9000;0.4054;1.4489;
1234.2000;0.3997;1.4419;
1234.5000;0.4013;1.4372;
1234.8000;0.4005;1.4325;
1235.1000;0.4029;1.4419;
1235.4000;0.4013;1.4349;
1235.7000;0.4013;1.4442;
1236.0000;0.4078;1.4606;
1236.3000;0.4013;1.4489;
1236.6000;0.4021;1.4512;
1236.9000;0.3997;1.4466;
1237.2000;0.4054;1.4606;
1237.5000;0.4013;1.4583;
1237.8000;0.4037;1.4629;
1238.1000;0.4029;1.4653;
1238.4000;0.4054;1.4700;
1238.7000;0.4013;1.4559;
1239.0000;0.4013;1.4559;
1239.3000;0.4005;1.4512;
1239.6000;0.4013;1.4536;
1239.9000;0.4013;1.4512;
1240.2000;0.4005;1.4536;
1240.5000;0.4021;1.4536;
1240.8000;0.4029;1.4512;
1241.1000;0.3989;1.4583;
1241.4000;0.4005;1.4653;
1241.7000;0.4037;1.4700;
1242.0000;0.3989;1.4583;
1242.3000;0.4005;1.4583;
1242.6000;0.4029;1.4536;
1242.9000;0.4021;1.4512;
1243.2000;0.4013;1.4512;
1243.5000;0.3997;1.4536;
1243.8000;0.4013;1.4559;
1244.1000;0.4013;1.4512;
1244.4000;0.4029;1.4442;
1244.7000;0.4029;1.4466;
1245.0000;0.3989;1.4419;
1245.3000;0.4013;1.4512;
1245.6000;0.4021;1.4536;
1245.9000;0.4005;1.4419;
1246.2000;0.4021;1.4442;
1246.5000;0.3997;1.4419;
1246.8000;0.4005;1.4419;
1247.1000;0.3989;1.4466;
1247.4000;0.4021;1.4442;
1247.7000;0.4013;1.4419;
1248.0000;0.4005;1.4489;
1248.3000;0.4005;1.4489;
1248.6000;0.3997;1.4489;
1248.9000;0.3989;1.4466;
1249.2000;0.4021;1.4536;
1249.5000;0.4029;1.4559;
1249.8000;0.4029;1.4512;
1250.1000;0.3997;1.4512;
1250.4000;0.4005;1.4489;
1250.7000;0.4021;1.4489;
1251.0000;0.4029;1.4559;
1251.3000;0.4021;1.4606;
1251.6000;0.4005;1.4512;
1251.9000;0.4037;1.4512;
1252.2000;0.4054;1.4583;
1252.5000;0.4013;1.4559;
1252.8000;0.4021;1.4559;
1253.1000;0.4013;1.4629;
1253.4000;0.4029;1.4676;
1253.7000;0.4021;1.4629;
1254.0000;0.4078;1.4606;
1254.3000;0.4013;1.4466;
1254.6000;0.3989;1.4419;
1254.9000;0.4005;1.4419;
1255.2000;0.3948;1.4232;
1255.5000;0.3972;1.4138;
1255.8000;0.4005;1.4302;
1256.1000;0.4021;1.4372;
1256.4000;0.4013;1.4349;
1256.7000;0.4005;1.4278;
1257.0000;0.3997;1.4325;
1257.3000;0.4013;1.4349;
1257.6000;0.3997;1.4161;
1257.9000;0.4005;1.4255;
1258.2000;0.4021;1.4302;
1258.5000;0.3956;1.4185;
1258.8000;0.4013;1.4372;
1259.1000;0.3997;1.4349;
1259.4000;0.4013;1.4278;
1259.7000;0.4013;1.4278;
1260.0000;0.3997;1.4185;
1260.3000;0.3997;1.4255;
1260.6000;0.4013;1.4325;
1260.9000;0.4021;1.4325;
1261.2000;0.4021;1.4372;
1261.5000;0.4013;1.4395;
1261.8000;0.3980;1.4372;
1262.1000;0.4037;1.4466;
1262.4000;0.4054;1.4559;
1262.7000;0.4046;1.4489;
1263.0000;0.4013;1.4395;
1263.3000;0.4029;1.4395;
1263.6000;0.4029;1.4466;
1263.9000;0.4037;1.4512;
1264.2000;0.4013;1.4325;
1264.5000;0.4037;1.4302;
1264.8000;0.4029;1.4278;
1265.1000;0.4029;1.4278;
1265.4000;0.3980;1.4138;
1265.7000;0.4021;1.4302;
1266.0000;0.3964;1.4208;
1266.3000;0.4005;1.4302;
1266.6000;0.4029;1.4349;
1266.9000;0.4021;1.4442;
1267.2000;0.4013;1.4419;
1267.5000;0.3997;1.4325;
1267.8000;0.4013;1.4302;
1268.1000;0.3989;1.4372;
1268.4000;0.4005;1.4419;
1268.7000;0.4005;1.4372;
1269.0000;0.4013;1.4325;
1269.3000;0.4013;1.4278;
1269.6000;0.4029;1.4349;
1269.9000;0.4013;1.4325;
1270.2000;0.3980;1.4302;
1270.5000;0.4013;1.4372;
1270.8000;0.4005;1.4372;
1271.1000;0.4021;1.4372;
1271.4000;0.3989;1.4278;
1271.7000;0.4013;1.4255;
1272.0000;0.4013;1.4278;
1272.3000;0.4054;1.4466;
1272.6000;0.4005;1.4395;
1272.9000;0.4021;1.4442;
1273.2000;0.4013;1.4395;
1273.5000;0.4037;1.4489;
1273.8000;0.4021;1.4466;
1274.1000;0.4005;1.4512;
1274.4000;0.4013;1.4536;
1274.7000;0.3997;1.4606;
1275.0000;0.4005;1.4442;
1275.3000;0.4021;1.4489;
1275.6000;0.4021;1.4583;
1275.9000;0.3989;1.4419;
1276.2000;0.4005;1.4419;
1276.5000;0.4021;1.4349;
1276.8000;0.4013;1.4302;
1277.1000;0.4029;1.4395;
1277.4000;0.4005;1.4419;
1277.7000;0.4021;1.4489;
1278.0000;0.4005;1.4395;
1278.3000;0.4013;1.4442;
1278.6000;0.4021;1.4489;
1278.9000;0.3997;1.4442;
1279.2000;0.4029;1.4442;
1279.5000;0.4070;1.4536;
1279.8000;0.4037;1.4372;
1280.1000;0.4070;1.4536;
1280.4000;0.4013;1.4419;
1280.7000;0.4005;1.4419;
1281.0000;0.3980;1.4442;
1281.3000;0.4021;1.4536;
1281.6000;0.4021;1.4559;
1281.9000;0.4021;1.4512;
1282.2000;0.4062;1.4559;
1282.5000;0.4070;1.4536;
1282.8000;0.4005;1.4466;
1283.1000;0.3980;1.4419;
1283.4000;0.4013;1.4466;
1283.7000;0.4029;1.4559;
1284.0000;0.4029;1.4559;
1284.3000;0.4005;1.4395;
1284.6000;0.4021;1.4395;
1284.9000;0.3997;1.4395;
1285.2000;0.4029;1.4466;
1285.5000;0.4005;1.4395;
1285.8000;0.3989;1.4395;
1286.1000;0.4005;1.4466;
1286.4000;0.4021;1.4489;
1286.7000;0.3997;1.4395;
1287.0000;0.3997;1.4349;
1287.3000;0.3997;1.4372;
1287.6000;0.3997;1.4349;
1287.9000;0.3964;1.4232;
1288.2000;0.3980;1.4372;
1288.5000;0.3989;1.4512;
1288.8000;0.3989;1.4419;
1289.1000;0.3997;1.4325;
1289.4000;0.3980;1.4278;
1289.7000;0.4021;1.4278;
1290.0000;0.4029;1.4278;
1290.3000;0.4029;1.4185;
1290.6000;0.4029;1.4114;
1290.9000;0.3989;1.4044;
1291.2000;0.4005;1.4161;
1291.5000;0.4021;1.4161;
1291.8000;0.3997;1.4278;
1292.1000;0.3997;1.4325;
1292.4000;0.3989;1.4372;
1292.7000;0.4029;1.4536;
1293.0000;0.4046;1.4512;
1293.3000;0.3997;1.4466;
1293.6000;0.3964;1.4442;
1293.9000;0.3989;1.4536;
1294.2000;0.4013;1.4536;
1294.5000;0.3980;1.4395;
1294.8000;0.4005;1.4489;
1295.1000;0.3997;1.4512;
1295.4000;0.3980;1.4442;
1295.7000;0.4005;1.4559;
1296.0000;0.3997;1.4489;
1296.3000;0.3997;1.4489;
1296.6000;0.4021;1.4489;
1296.9000;0.4013;1.4466;
1297.2000;0.4021;1.4536;
1297.5000;0.4029;1.4629;
1297.8000;0.4029;1.4629;
1298.1000;0.4013;1.4536;
1298.4000;0.4021;1.4489;
1298.7000;0.4013;1.4395;
1299.0000;0.4029;1.4536;
1299.3000;0.4013;1.4512;
1299.6000;0.4013;1.4489;
1299.9000;0.4029;1.4606;
1300.2000;0.4029;1.4629;
1300.5000;0.4037;1.4606;
1300.8000;0.4062;1.4700;
1301.1000;0.4013;1.4583;
1301.4000;0.4037;1.4606;
1301.7000;0.4029;1.4606;
1302.0000;0.3972;1.4466;
1302.3000;0.4005;1.4512;
1302.6000;0.4021;1.4536;
1302.9000;0.4021;1.4512;
1303.2000;0.4021;1.4512;
1303.5000;0.4070;1.4606;
1303.8000;0.3989;1.4419;
1304.1000;0.4013;1.4512;
1304.4000;0.3997;1.4536;
1304.7000;0.3956;1.4372;
1305.0000;0.4021;1.4559;
1305.3000;0.3997;1.4606;
1305.6000;0.4013;1.4793;
1305.9000;0.4013;1.4817;
1306.2000;0.4021;1.4817;
1306.5000;0.3980;1.4723;
1306.8000;0.4005;1.4793;
1307.1000;0.4029;1.4864;
1307.4000;0.4005;1.4864;
1307.7000;0.3980;1.4770;
1308.0000;0.4005;1.4746;
1308.3000;0.3997;1.4723;
1308.6000;0.4037;1.4864;
1308.9000;0.3980;1.4746;
1309.2000;0.3972;1.4676;
1309.5000;0.3997;1.4746;
1309.8000;0.4005;1.4723;
1310.1000;0.4013;1.4793;
1310.4000;0.4021;1.4653;
1310.7000;0.4013;1.4629;
1311.0000;0.3956;1.4442;
1311.3000;0.4005;1.4676;
1311.6000;0.4029;1.4676;
1311.9000;0.4005;1.4723;
1312.2000;0.4021;1.4723;
1312.5000;0.4029;1.4606;
1312.8000;0.4013;1.4559;
1313.1000;0.3956;1.4325;
1313.4000;0.4029;1.4466;
1313.7000;0.4021;1.4419;
1314.0000;0.3989;1.4372;
1314.3000;0.4029;1.4489;
1314.6000;0.4029;1.4466;
1314.9000;0.4021;1.4442;
1315.2000;0.4013;1.4466;
1315.5000;0.4005;1.4512;
1315.8000;0.4013;1.4583;
1316.1000;0.4021;1.4606;
1316.4000;0.4021;1.4653;
1316.7000;0.4005;1.4629;
1317.0000;0.3997;1.4583;
1317.3000;0.4005;1.4559;
1317.6000;0.4005;1.4583;
1317.9000;0.4005;1.4653;
1318.2000;0.4021;1.4606;
1318.5000;0.3980;1.4653;
1318.8000;0.4021;1.4676;
1319.1000;0.4021;1.4629;
1319.4000;0.3948;1.4442;
1319.7000;0.4029;1.4606;
1320.0000;0.4021;1.4629;
1320.3000;0.4013;1.4583;
1320.6000;0.4013;1.4676;
1320.9000;0.4037;1.4793;
1321.2000;0.4013;1.4653;
1321.5000;0.4046;1.4653;
1321.8000;0.4013;1.4653;
1322.1000;0.4021;1.4653;
1322.4000;0.4005;1.4676;
1322.7000;0.4013;1.4700;
1323.0000;0.4037;1.4653;
1323.3000;0.4029;1.4583;
1323.6000;0.3989;1.4536;
1323.9000;0.4021;1.4606;
1324.2000;0.4005;1.4606;
1324.5000;0.4013;1.4559;
1324.8000;0.4021;1.4606;
1325.1000;0.4013;1.4606;
1325.4000;0.3989;1.4583;
1325.7000;0.4021;1.4606;
1326.0000;0.4013;1.4536;
1326.3000;0.3997;1.4536;
1326.6000;0.4005;1.4653;
1326.9000;0.3972;1.4653;
1327.2000;0.3891;1.4466;
1327.5000;0.4013;1.4700;
1327.8000;0.4005;1.4746;
1328.1000;0.3972;1.4559;
1328.4000;0.3997;1.4629;
1328.7000;0.4037;1.4700;
1329.0000;0.4005;1.4629;
1329.3000;0.3907;1.4442;
1329.6000;0.4054;1.4746;
1329.9000;0.4005;1.4489;
1330.2000;0.4021;1.4489;
1330.5000;0.4021;1.4442;
1330.8000;0.4005;1.4395;
1331.1000;0.4046;1.4512;
1331.4000;0.4029;1.4536;
1331.7000;0.4005;1.4536;
1332.0000;0.4005;1.4583;
1332.3000;0.4021;1.4606;
1332.6000;0.3980;1.4419;
1332.9000;0.3997;1.4372;
1333.2000;0.3989;1.4349;
1333.5000;0.3997;1.4419;
1333.8000;0.4013;1.4419;
1334.1000;0.4070;1.4583;
1334.4000;0.4046;1.4583;
1334.7000;0.4029;1.4606;
1335.0000;0.3989;1.4512;
1335.3000;0.4054;1.4746;
1335.6000;0.4021;1.4536;
1335.9000;0.4013;1.4559;
1336.2000;0.3948;1.4419;
1336.5000;0.4029;1.4583;
1336.8000;0.4013;1.4559;
1337.1000;0.4021;1.4489;
1337.4000;0.4021;1.4466;
1337.7000;0.4029;1.4466;
1338.0000;0.4005;1.4442;
1338.3000;0.4013;1.4466;
1338.6000;0.3997;1.4349;
1338.9000;0.3980;1.4349;
1339.2000;0.4021;1.4419;
1339.5000;0.4037;1.4536;
1339.8000;0.4005;1.4466;
1340.1000;0.4021;1.4512;
1340.4000;0.4005;1.4512;
1340.7000;0.3989;1.4466;
1341.0000;0.4013;1.4512;
1341.3000;0.4013;1.4489;
1341.6000;0.4013;1.4536;
1341.9000;0.3989;1.4512;
1342.2000;0.4005;1.4583;
1342.5000;0.4013;1.4442;
1342.8000;0.4005;1.4442;
1343.1000;0.3980;1.4419;
1343.4000;0.3997;1.4419;
1343.7000;0.3989;1.4349;
1344.0000;0.3997;1.4302;
1344.3000;0.4005;1.4325;
1344.6000;0.4021;1.4372;
1344.9000;0.4005;1.4372;
1345.2000;0.4021;1.4395;
1345.5000;0.4029;1.4489;
1345.8000;0.4037;1.4559;
1346.1000;0.4013;1.4536;
1346.4000;0.4021;1.4512;
1346.7000;0.4021;1.4583;
1347.0000;0.3956;1.4489;
1347.3000;0.4037;1.4629;
1347.6000;0.4029;1.4629;
1347.9000;0.4013;1.4583;
1348.2000;0.3997;1.4583;
1348.5000;0.3940;1.4442;
1348.8000;0.3997;1.4653;
1349.1000;0.4005;1.4700;
1349.4000;0.4013;1.4629;
1349.7000;0.3997;1.4606;
1350.0000;0.4029;1.4653;
1350.3000;0.3989;1.4489;
1350.6000;0.4021;1.4512;
1350.9000;0.3980;1.4442;
1351.2000;0.3989;1.4559;
1351.5000;0.4029;1.4629;
1351.8000;0.4046;1.4723;
1352.1000;0.4005;1.4700;
1352.4000;0.3972;1.4583;
1352.7000;0.3997;1.4629;
1353.0000;0.4005;1.4629;
1353.3000;0.3997;1.4629;
1353.6000;0.4005;1.4536;
1353.9000;0.4029;1.4606;
1354.2000;0.4046;1.4653;
1354.5000;0.4013;1.4583;
1354.8000;0.3997;1.4583;
1355.1000;0.4005;1.4559;
1355.4000;0.4029;1.4512;
1355.7000;0.4013;1.4489;
1356.0000;0.3972;1.4442;
1356.3000;0.4013;1.4536;
1356.6000;0.4013;1.4559;
1356.9000;0.3997;1.4583;
1357.2000;0.3997;1.4466;
1357.5000;0.3989;1.4395;
1357.8000;0.3997;1.4442;
1358.1000;0.4013;1.4419;
1358.4000;0.3989;1.4395;
1358.7000;0.4005;1.4419;
1359.0000;0.3972;1.4466;
1359.3000;0.4029;1.4536;
1359.6000;0.4021;1.4583;
1359.9000;0.4005;1.4629;
1360.2000;0.3997;1.4653;
1360.5000;0.4021;1.4746;
1360.8000;0.4013;1.4770;
1361.1000;0.4005;1.4700;
1361.4000;0.4005;1.4700;
1361.7000;0.4005;1.4700;
1362.0000;0.4013;1.4676;
1362.3000;0.4013;1.4629;
1362.6000;0.4005;1.4559;
1362.9000;0.4078;1.4653;
1363.2000;0.4005;1.4559;
1363.5000;0.4005;1.4653;
1363.8000;0.4029;1.4606;
1364.1000;0.3980;1.4512;
1364.4000;0.4005;1.4653;
1364.7000;0.4005;1.4629;
1365.0000;0.4013;1.4676;
1365.3000;0.3997;1.4676;
1365.6000;0.3997;1.4653;
1365.9000;0.4029;1.4653;
1366.2000;0.4013;1.4629;
1366.5000;0.3907;1.4372;
1366.8000;0.4037;1.4606;
1367.1000;0.3997;1.4419;
1367.4000;0.4013;1.4372;
1367.7000;0.4029;1.4395;
1368.0000;0.4013;1.4419;
1368.3000;0.4037;1.4489;
1368.6000;0.4029;1.4489;
1368.9000;0.3858;1.4091;
1369.2000;0.4013;1.4512;
1369.5000;0.4005;1.4536;
1369.8000;0.4021;1.4629;
1370.1000;0.3997;1.4512;
1370.4000;0.4029;1.4583;
1370.7000;0.4005;1.4536;
1371.0000;0.4037;1.4559;
1371.3000;0.4005;1.4442;
1371.6000;0.4054;1.4700;
1371.9000;0.3989;1.4606;
1372.2000;0.4037;1.4653;
1372.5000;0.3997;1.4583;
1372.8000;0.4005;1.4583;
1373.1000;0.4013;1.4606;
1373.4000;0.4029;1.4629;
1373.7000;0.3989;1.4536;
1374.0000;0.3915;1.4232;
1374.3000;0.4021;1.4325;
1374.6000;0.3923;1.4138;
1374.9000;0.3997;1.4372;
1375.2000;0.3997;1.4442;
1375.5000;0.4005;1.4442;
1375.8000;0.4013;1.4419;
1376.1000;0.4005;1.4349;
1376.4000;0.4013;1.4419;
1376.7000;0.4005;1.4466;
1377.0000;0.4013;1.4559;
1377.3000;0.4062;1.4606;
1377.6000;0.4086;1.4583;
1377.9000;0.3997;1.4372;
1378.2000;0.4021;1.4325;
1378.5000;0.4005;1.4395;
1378.8000;0.3997;1.4442;
1379.1000;0.4013;1.4466;
1379.4000;0.3989;1.4512;
1379.7000;0.4046;1.4723;
1380.0000;0.3997;1.4629;
1380.3000;0.3997;1.4606;
1380.6000;0.3997;1.4653;
1380.9000;0.4021;1.4793;
1381.2000;0.4005;1.4817;
1381.5000;0.3997;1.4723;
1381.8000;0.4005;1.4629;
1382.1000;0.4029;1.4700;
1382.4000;0.3997;1.4559;
1382.7000;0.4013;1.4512;
1383.0000;0.4005;1.4653;
1383.3000;0.4013;1.4746;
1383.6000;0.4013;1.4793;
1383.9000;0.3964;1.4653;
1384.2000;0.3997;1.4676;
1384.5000;0.3989;1.4629;
1384.8000;0.4054;1.4700;
1385.1000;0.4005;1.4512;
1385.4000;0.3907;1.4161;
1385.7000;0.3997;1.4325;
1386.0000;0.4021;1.4208;
1386.3000;0.3997;1.4232;
1386.6000;0.3989;1.4302;
1386.9000;0.3997;1.4349;
1387.2000;0.3989;1.4466;
1387.5000;0.3997;1.4466;
1387.8000;0.3964;1.4395;
1388.1000;0.3989;1.4395;
1388.4000;0.4054;1.4629;
1388.7000;0.4013;1.4583;
1389.0000;0.4013;1.4536;
1389.3000;0.3980;1.4536;
1389.6000;0.4021;1.4583;
1389.9000;0.4013;1.4629;
1390.2000;0.4005;1.4676;
1390.5000;0.3997;1.4606;
1390.8000;0.4005;1.4629;
1391.1000;0.4021;1.4676;
1391.4000;0.3997;1.4629;
1391.7000;0.3997;1.4676;
1392.0000;0.4013;1.4653;
1392.3000;0.4037;1.4676;
1392.6000;0.4029;1.4653;
1392.9000;0.4005;1.4536;
1393.2000;0.4005;1.4489;
1393.5000;0.4021;1.4512;
1393.8000;0.4029;1.4536;
1394.1000;0.3980;1.4536;
1394.4000;0.3964;1.4583;
1394.7000;0.3989;1.4700;
1395.0000;0.3980;1.4770;
1395.3000;0.3989;1.4700;
1395.6000;0.3972;1.4629;
1395.9000;0.4029;1.4793;
1396.2000;0.4013;1.4559;
1396.5000;0.4021;1.4442;
1396.8000;0.4013;1.4442;
1397.1000;0.4005;1.4372;
1397.4000;0.3997;1.4372;
1397.7000;0.4029;1.4442;
1398.0000;0.4013;1.4372;
1398.3000;0.3997;1.4395;
1398.6000;0.4021;1.4419;
1398.9000;0.4005;1.4349;
1399.2000;0.4005;1.4325;
1399.5000;0.4062;1.4536;
1399.8000;0.3997;1.4489;
