time/ms;Fluo/V;P700 deltaI/I x10³;
-199.8000;0.4119;1.2148;
-199.5000;0.4086;1.2055;
-199.2000;0.4119;1.2125;
-198.9000;0.4119;1.2148;
-198.6000;0.4119;1.2148;
-198.3000;0.4094;1.2195;
-198.0000;0.4103;1.2312;
-197.7000;0.4119;1.2336;
-197.4000;0.4103;1.2336;
-197.1000;0.4111;1.2382;
-196.8000;0.4103;1.2336;
-196.5000;0.4094;1.2312;
-196.2000;0.4103;1.2242;
-195.9000;0.4086;1.2172;
-195.6000;0.4127;1.2336;
-195.3000;0.4103;1.2359;
-195.0000;0.4094;1.2406;
-194.7000;0.4103;1.2382;
-194.4000;0.4086;1.2265;
-194.1000;0.4111;1.2289;
-193.8000;0.4103;1.2312;
-193.5000;0.4103;1.2219;
-193.2000;0.4103;1.2336;
-192.9000;0.4103;1.2359;
-192.6000;0.4111;1.2382;
-192.3000;0.4094;1.2312;
-192.0000;0.4103;1.2265;
-191.7000;0.4103;1.2242;
-191.4000;0.4111;1.2359;
-191.1000;0.4103;1.2289;
-190.8000;0.4143;1.2453;
-190.5000;0.4094;1.2289;
-190.2000;0.4103;1.2359;
-189.9000;0.4111;1.2382;
-189.6000;0.4103;1.2359;
-189.3000;0.4094;1.2312;
-189.0000;0.4111;1.2312;
-188.7000;0.4127;1.2382;
-188.4000;0.4111;1.2359;
-188.1000;0.4111;1.2359;
-187.8000;0.4127;1.2382;
-187.5000;0.4127;1.2406;
-187.2000;0.4103;1.2406;
-186.9000;0.4094;1.2406;
-186.6000;0.4094;1.2336;
-186.3000;0.4111;1.2406;
-186.0000;0.4111;1.2382;
-185.7000;0.4094;1.2453;
-185.4000;0.4094;1.2382;
-185.1000;0.4111;1.2359;
-184.8000;0.4103;1.2289;
-184.5000;0.4103;1.2289;
-184.2000;0.4103;1.2242;
-183.9000;0.4111;1.2265;
-183.6000;0.4127;1.2265;
-183.3000;0.4119;1.2265;
-183.0000;0.4111;1.2242;
-182.7000;0.4094;1.2219;
-182.4000;0.4111;1.2265;
-182.1000;0.4111;1.2382;
-181.8000;0.4094;1.2453;
-181.5000;0.4094;1.2336;
-181.2000;0.4119;1.2289;
-180.9000;0.4127;1.2289;
-180.6000;0.4111;1.2219;
-180.3000;0.4103;1.2219;
-180.0000;0.4119;1.2195;
-179.7000;0.4127;1.2312;
-179.4000;0.4119;1.2312;
-179.1000;0.4111;1.2359;
-178.8000;0.4135;1.2429;
-178.5000;0.4135;1.2336;
-178.2000;0.4119;1.2242;
-177.9000;0.4111;1.2172;
-177.6000;0.4111;1.2219;
-177.3000;0.4111;1.2219;
-177.0000;0.4103;1.2172;
-176.7000;0.4094;1.2101;
-176.4000;0.4062;1.2125;
-176.1000;0.4103;1.2219;
-175.8000;0.4103;1.2242;
-175.5000;0.4103;1.2336;
-175.2000;0.4103;1.2336;
-174.9000;0.4111;1.2359;
-174.6000;0.4103;1.2289;
-174.3000;0.4127;1.2289;
-174.0000;0.4111;1.2242;
-173.7000;0.4111;1.2219;
-173.4000;0.4127;1.2219;
-173.1000;0.4103;1.2219;
-172.8000;0.4111;1.2219;
-172.5000;0.4103;1.2219;
-172.2000;0.4119;1.2289;
-171.9000;0.4103;1.2219;
-171.6000;0.4103;1.2219;
-171.3000;0.4094;1.2219;
-171.0000;0.4103;1.2242;
-170.7000;0.4135;1.2359;
-170.4000;0.4143;1.2359;
-170.1000;0.4094;1.2195;
-169.8000;0.4103;1.2242;
-169.5000;0.4094;1.2195;
-169.2000;0.4111;1.2219;
-168.9000;0.4111;1.2195;
-168.6000;0.4143;1.2312;
-168.3000;0.4103;1.2219;
-168.0000;0.4111;1.2265;
-167.7000;0.4094;1.2312;
-167.4000;0.4119;1.2289;
-167.1000;0.4127;1.2336;
-166.8000;0.4111;1.2336;
-166.5000;0.4127;1.2406;
-166.2000;0.4046;1.2148;
-165.9000;0.4111;1.2336;
-165.6000;0.4094;1.2336;
-165.3000;0.4119;1.2406;
-165.0000;0.4111;1.2429;
-164.7000;0.4086;1.2382;
-164.4000;0.4111;1.2359;
-164.1000;0.4127;1.2336;
-163.8000;0.4111;1.2406;
-163.5000;0.4127;1.2429;
-163.2000;0.4168;1.2476;
-162.9000;0.4119;1.2429;
-162.6000;0.4119;1.2476;
-162.3000;0.4103;1.2429;
-162.0000;0.4111;1.2570;
-161.7000;0.4127;1.2616;
-161.4000;0.4119;1.2523;
-161.1000;0.4078;1.2406;
-160.8000;0.4119;1.2476;
-160.5000;0.4111;1.2499;
-160.2000;0.4103;1.2453;
-159.9000;0.4103;1.2406;
-159.6000;0.4086;1.2429;
-159.3000;0.4094;1.2499;
-159.0000;0.4103;1.2453;
-158.7000;0.4103;1.2453;
-158.4000;0.4094;1.2406;
-158.1000;0.4111;1.2453;
-157.8000;0.4119;1.2453;
-157.5000;0.4103;1.2453;
-157.2000;0.4168;1.2640;
-156.9000;0.4127;1.2453;
-156.6000;0.4111;1.2453;
-156.3000;0.4094;1.2570;
-156.0000;0.4094;1.2453;
-155.7000;0.4103;1.2523;
-155.4000;0.4078;1.2453;
-155.1000;0.4094;1.2499;
-154.8000;0.4094;1.2406;
-154.5000;0.4119;1.2429;
-154.2000;0.4143;1.2523;
-153.9000;0.4111;1.2476;
-153.6000;0.4135;1.2616;
-153.3000;0.4111;1.2546;
-153.0000;0.4103;1.2570;
-152.7000;0.4119;1.2570;
-152.4000;0.4086;1.2453;
-152.1000;0.4168;1.2733;
-151.8000;0.4111;1.2570;
-151.5000;0.4103;1.2476;
-151.2000;0.4094;1.2499;
-150.9000;0.4103;1.2546;
-150.6000;0.4103;1.2570;
-150.3000;0.4111;1.2453;
-150.0000;0.4094;1.2429;
-149.7000;0.4094;1.2453;
-149.4000;0.4094;1.2453;
-149.1000;0.4143;1.2663;
-148.8000;0.4111;1.2523;
-148.5000;0.4086;1.2523;
-148.2000;0.4054;1.2499;
-147.9000;0.4127;1.2570;
-147.6000;0.4127;1.2570;
-147.3000;0.4151;1.2546;
-147.0000;0.4111;1.2499;
-146.7000;0.4111;1.2499;
-146.4000;0.4111;1.2570;
-146.1000;0.4119;1.2640;
-145.8000;0.4103;1.2593;
-145.5000;0.4086;1.2499;
-145.2000;0.4103;1.2570;
-144.9000;0.4103;1.2476;
-144.6000;0.4094;1.2546;
-144.3000;0.4094;1.2499;
-144.0000;0.4111;1.2593;
-143.7000;0.4111;1.2687;
-143.4000;0.4103;1.2687;
-143.1000;0.4119;1.2663;
-142.8000;0.4119;1.2663;
-142.5000;0.4103;1.2546;
-142.2000;0.4160;1.2687;
-141.9000;0.4111;1.2359;
-141.6000;0.4127;1.2312;
-141.3000;0.4143;1.2406;
-141.0000;0.4111;1.2359;
-140.7000;0.4103;1.2289;
-140.4000;0.4103;1.2312;
-140.1000;0.4103;1.2429;
-139.8000;0.4103;1.2382;
-139.5000;0.4054;1.2125;
-139.2000;0.4103;1.2219;
-138.9000;0.4103;1.2172;
-138.6000;0.4103;1.2148;
-138.3000;0.4119;1.2382;
-138.0000;0.4103;1.2382;
-137.7000;0.4160;1.2453;
-137.4000;0.4086;1.2406;
-137.1000;0.4119;1.2476;
-136.8000;0.4103;1.2523;
-136.5000;0.4111;1.2523;
-136.2000;0.4094;1.2476;
-135.9000;0.4111;1.2593;
-135.6000;0.4111;1.2453;
-135.3000;0.4094;1.2382;
-135.0000;0.4086;1.2336;
-134.7000;0.4168;1.2523;
-134.4000;0.4127;1.2336;
-134.1000;0.4127;1.2312;
-133.8000;0.4103;1.2242;
-133.5000;0.4111;1.2359;
-133.2000;0.4094;1.2382;
-132.9000;0.4078;1.2265;
-132.6000;0.4127;1.2289;
-132.3000;0.4111;1.2359;
-132.0000;0.4111;1.2406;
-131.7000;0.4127;1.2499;
-131.4000;0.4103;1.2476;
-131.1000;0.4111;1.2499;
-130.8000;0.4103;1.2453;
-130.5000;0.4078;1.2476;
-130.2000;0.4127;1.2453;
-129.9000;0.4168;1.2640;
-129.6000;0.4094;1.2406;
-129.3000;0.4143;1.2546;
-129.0000;0.4184;1.2546;
-128.7000;0.4111;1.2265;
-128.4000;0.4127;1.2336;
-128.1000;0.4127;1.2429;
-127.8000;0.4111;1.2429;
-127.5000;0.4111;1.2476;
-127.2000;0.4111;1.2476;
-126.9000;0.4070;1.2359;
-126.6000;0.4103;1.2593;
-126.3000;0.4029;1.2336;
-126.0000;0.4143;1.2499;
-125.7000;0.4103;1.2429;
-125.4000;0.4094;1.2453;
-125.1000;0.4078;1.2312;
-124.8000;0.4094;1.2312;
-124.5000;0.4078;1.2289;
-124.2000;0.4151;1.2453;
-123.9000;0.4103;1.2289;
-123.6000;0.4086;1.2242;
-123.3000;0.4046;1.2172;
-123.0000;0.4094;1.2429;
-122.7000;0.4111;1.2476;
-122.4000;0.4094;1.2476;
-122.1000;0.4111;1.2476;
-121.8000;0.4086;1.2382;
-121.5000;0.4111;1.2429;
-121.2000;0.4111;1.2499;
-120.9000;0.4119;1.2476;
-120.6000;0.4103;1.2406;
-120.3000;0.4086;1.2359;
-120.0000;0.4151;1.2429;
-119.7000;0.4119;1.2312;
-119.4000;0.4086;1.2219;
-119.1000;0.4135;1.2289;
-118.8000;0.4111;1.2219;
-118.5000;0.4119;1.2312;
-118.2000;0.4111;1.2382;
-117.9000;0.4111;1.2382;
-117.6000;0.4119;1.2382;
-117.3000;0.4127;1.2359;
-117.0000;0.4143;1.2382;
-116.7000;0.4127;1.2219;
-116.4000;0.4168;1.2242;
-116.1000;0.4103;1.2055;
-115.8000;0.4086;1.2031;
-115.5000;0.4078;1.1984;
-115.2000;0.4094;1.1938;
-114.9000;0.4103;1.2031;
-114.6000;0.4103;1.2101;
-114.3000;0.4094;1.2148;
-114.0000;0.4086;1.2219;
-113.7000;0.4094;1.2312;
-113.4000;0.4111;1.2453;
-113.1000;0.4111;1.2476;
-112.8000;0.4119;1.2382;
-112.5000;0.4094;1.2172;
-112.2000;0.4111;1.2312;
-111.9000;0.4094;1.2219;
-111.6000;0.4119;1.2172;
-111.3000;0.4103;1.2101;
-111.0000;0.4135;1.2195;
-110.7000;0.4119;1.2148;
-110.4000;0.4078;1.2148;
-110.1000;0.4119;1.2219;
-109.8000;0.4086;1.2219;
-109.5000;0.4127;1.2289;
-109.2000;0.4078;1.2125;
-108.9000;0.4094;1.2219;
-108.6000;0.4094;1.2289;
-108.3000;0.4103;1.2219;
-108.0000;0.4111;1.2172;
-107.7000;0.4111;1.2195;
-107.4000;0.4135;1.2265;
-107.1000;0.4054;1.2148;
-106.8000;0.4119;1.2336;
-106.5000;0.4111;1.2312;
-106.2000;0.4094;1.2312;
-105.9000;0.4127;1.2242;
-105.6000;0.4119;1.2289;
-105.3000;0.4111;1.2195;
-105.0000;0.4103;1.2078;
-104.7000;0.4103;1.2172;
-104.4000;0.4127;1.2242;
-104.1000;0.4103;1.2195;
-103.8000;0.4046;1.2125;
-103.5000;0.4111;1.2336;
-103.2000;0.4094;1.2312;
-102.9000;0.4103;1.2289;
-102.6000;0.4054;1.2219;
-102.3000;0.4086;1.2312;
-102.0000;0.4119;1.2382;
-101.7000;0.4119;1.2406;
-101.4000;0.4119;1.2429;
-101.1000;0.4127;1.2336;
-100.8000;0.4135;1.2429;
-100.5000;0.4135;1.2499;
-100.2000;0.4111;1.2429;
-99.9000;0.4111;1.2453;
-99.6000;0.4119;1.2499;
-99.3000;0.4127;1.2570;
-99.0000;0.4119;1.2476;
-98.7000;0.4086;1.2382;
-98.4000;0.4103;1.2429;
-98.1000;0.4119;1.2499;
-97.8000;0.4094;1.2359;
-97.5000;0.4094;1.2289;
-97.2000;0.4094;1.2312;
-96.9000;0.4127;1.2406;
-96.6000;0.4151;1.2523;
-96.3000;0.4127;1.2570;
-96.0000;0.4078;1.2406;
-95.7000;0.4070;1.2382;
-95.4000;0.4111;1.2359;
-95.1000;0.4103;1.2382;
-94.8000;0.4094;1.2382;
-94.5000;0.4119;1.2359;
-94.2000;0.4111;1.2312;
-93.9000;0.4103;1.2312;
-93.6000;0.4111;1.2429;
-93.3000;0.4111;1.2476;
-93.0000;0.4119;1.2476;
-92.7000;0.4143;1.2546;
-92.4000;0.4160;1.2429;
-92.1000;0.4070;1.2406;
-91.8000;0.4119;1.2476;
-91.5000;0.4094;1.2523;
-91.2000;0.4151;1.2710;
-90.9000;0.4094;1.2453;
-90.6000;0.4086;1.2453;
-90.3000;0.4143;1.2593;
-90.0000;0.4103;1.2499;
-89.7000;0.4094;1.2476;
-89.4000;0.4103;1.2499;
-89.1000;0.4103;1.2382;
-88.8000;0.4103;1.2336;
-88.5000;0.4086;1.2265;
-88.2000;0.4111;1.2336;
-87.9000;0.4086;1.2242;
-87.6000;0.4070;1.2195;
-87.3000;0.4094;1.2312;
-87.0000;0.4086;1.2289;
-86.7000;0.4111;1.2406;
-86.4000;0.4111;1.2359;
-86.1000;0.4094;1.2336;
-85.8000;0.4103;1.2499;
-85.5000;0.4094;1.2546;
-85.2000;0.4111;1.2382;
-84.9000;0.4200;1.2640;
-84.6000;0.4103;1.2523;
-84.3000;0.4103;1.2640;
-84.0000;0.4094;1.2616;
-83.7000;0.4111;1.2640;
-83.4000;0.4111;1.2640;
-83.1000;0.4233;1.2921;
-82.8000;0.4135;1.2757;
-82.5000;0.4119;1.2733;
-82.2000;0.4111;1.2710;
-81.9000;0.4111;1.2640;
-81.6000;0.4119;1.2570;
-81.3000;0.4111;1.2523;
-81.0000;0.4094;1.2476;
-80.7000;0.4111;1.2546;
-80.4000;0.4103;1.2523;
-80.1000;0.4111;1.2523;
-79.8000;0.4111;1.2523;
-79.5000;0.4111;1.2406;
-79.2000;0.4160;1.2593;
-78.9000;0.4127;1.2570;
-78.6000;0.4111;1.2546;
-78.3000;0.4103;1.2523;
-78.0000;0.4103;1.2453;
-77.7000;0.4111;1.2476;
-77.4000;0.4119;1.2570;
-77.1000;0.4046;1.2429;
-76.8000;0.4111;1.2570;
-76.5000;0.4103;1.2640;
-76.2000;0.4029;1.2382;
-75.9000;0.4111;1.2593;
-75.6000;0.4127;1.2733;
-75.3000;0.4127;1.2780;
-75.0000;0.4111;1.2593;
-74.7000;0.4119;1.2546;
-74.4000;0.4103;1.2546;
-74.1000;0.4119;1.2499;
-73.8000;0.4119;1.2429;
-73.5000;0.4111;1.2406;
-73.2000;0.4086;1.2359;
-72.9000;0.4111;1.2429;
-72.6000;0.4119;1.2429;
-72.3000;0.4103;1.2406;
-72.0000;0.4094;1.2336;
-71.7000;0.4103;1.2382;
-71.4000;0.4111;1.2429;
-71.1000;0.4135;1.2499;
-70.8000;0.4119;1.2453;
-70.5000;0.4103;1.2429;
-70.2000;0.4119;1.2429;
-69.9000;0.4127;1.2429;
-69.6000;0.4111;1.2336;
-69.3000;0.4094;1.2359;
-69.0000;0.4111;1.2429;
-68.7000;0.4111;1.2499;
-68.4000;0.4127;1.2476;
-68.1000;0.4103;1.2499;
-67.8000;0.4103;1.2523;
-67.5000;0.4119;1.2616;
-67.2000;0.4111;1.2570;
-66.9000;0.4094;1.2476;
-66.6000;0.4070;1.2406;
-66.3000;0.4119;1.2523;
-66.0000;0.4151;1.2499;
-65.7000;0.4111;1.2382;
-65.4000;0.4086;1.2406;
-65.1000;0.4111;1.2429;
-64.8000;0.4119;1.2406;
-64.5000;0.4135;1.2453;
-64.2000;0.4086;1.2265;
-63.9000;0.4111;1.2429;
-63.6000;0.4160;1.2499;
-63.3000;0.4094;1.2429;
-63.0000;0.4103;1.2336;
-62.7000;0.4111;1.2289;
-62.4000;0.4103;1.2289;
-62.1000;0.4078;1.2172;
-61.8000;0.4078;1.2055;
-61.5000;0.4119;1.2125;
-61.2000;0.4127;1.2148;
-60.9000;0.4103;1.2125;
-60.6000;0.4119;1.2148;
-60.3000;0.4103;1.2219;
-60.0000;0.4103;1.2265;
-59.7000;0.4135;1.2312;
-59.4000;0.4127;1.2289;
-59.1000;0.4103;1.2195;
-58.8000;0.4160;1.2242;
-58.5000;0.4111;1.2055;
-58.2000;0.4111;1.1961;
-57.9000;0.4103;1.1844;
-57.6000;0.4135;1.1914;
-57.3000;0.4094;1.1914;
-57.0000;0.4086;1.1891;
-56.7000;0.4111;1.2008;
-56.4000;0.4103;1.2031;
-56.1000;0.4111;1.2172;
-55.8000;0.4143;1.2242;
-55.5000;0.4094;1.2148;
-55.2000;0.4111;1.2219;
-54.9000;0.4119;1.2289;
-54.6000;0.4103;1.2336;
-54.3000;0.4094;1.2336;
-54.0000;0.4111;1.2336;
-53.7000;0.4086;1.2312;
-53.4000;0.4119;1.2476;
-53.1000;0.4111;1.2499;
-52.8000;0.4094;1.2570;
-52.5000;0.4119;1.2570;
-52.2000;0.4119;1.2640;
-51.9000;0.4127;1.2687;
-51.6000;0.4127;1.2780;
-51.3000;0.4103;1.2663;
-51.0000;0.4160;1.2827;
-50.7000;0.4119;1.2733;
-50.4000;0.4111;1.2640;
-50.1000;0.4160;1.2640;
-49.8000;0.4111;1.2523;
-49.5000;0.4127;1.2499;
-49.2000;0.4119;1.2476;
-48.9000;0.4119;1.2429;
-48.6000;0.4119;1.2453;
-48.3000;0.4086;1.2476;
-48.0000;0.4111;1.2546;
-47.7000;0.4111;1.2499;
-47.4000;0.4094;1.2406;
-47.1000;0.4094;1.2382;
-46.8000;0.4103;1.2406;
-46.5000;0.4086;1.2406;
-46.2000;0.4078;1.2429;
-45.9000;0.4111;1.2593;
-45.6000;0.4143;1.2663;
-45.3000;0.4054;1.2453;
-45.0000;0.4103;1.2523;
-44.7000;0.4094;1.2453;
-44.4000;0.4078;1.2336;
-44.1000;0.4111;1.2406;
-43.8000;0.4111;1.2429;
-43.5000;0.4143;1.2453;
-43.2000;0.4127;1.2406;
-42.9000;0.4143;1.2546;
-42.6000;0.4094;1.2406;
-42.3000;0.4135;1.2453;
-42.0000;0.4054;1.2242;
-41.7000;0.4119;1.2453;
-41.4000;0.4111;1.2429;
-41.1000;0.4111;1.2406;
-40.8000;0.4119;1.2429;
-40.5000;0.4119;1.2429;
-40.2000;0.4143;1.2453;
-39.9000;0.4103;1.2453;
-39.6000;0.4111;1.2453;
-39.3000;0.4111;1.2453;
-39.0000;0.4103;1.2429;
-38.7000;0.4119;1.2476;
-38.4000;0.4119;1.2499;
-38.1000;0.4168;1.2640;
-37.8000;0.4111;1.2570;
-37.5000;0.4103;1.2570;
-37.2000;0.4037;1.2406;
-36.9000;0.4103;1.2453;
-36.6000;0.4094;1.2406;
-36.3000;0.4143;1.2570;
-36.0000;0.4103;1.2429;
-35.7000;0.4103;1.2429;
-35.4000;0.4103;1.2406;
-35.1000;0.4103;1.2476;
-34.8000;0.4094;1.2453;
-34.5000;0.4111;1.2546;
-34.2000;0.4094;1.2523;
-33.9000;0.4103;1.2593;
-33.6000;0.4103;1.2593;
-33.3000;0.4086;1.2453;
-33.0000;0.4119;1.2429;
-32.7000;0.4094;1.2312;
-32.4000;0.4094;1.2242;
-32.1000;0.4103;1.2336;
-31.8000;0.4111;1.2359;
-31.5000;0.4135;1.2382;
-31.2000;0.4111;1.2289;
-30.9000;0.4111;1.2406;
-30.6000;0.4111;1.2453;
-30.3000;0.4103;1.2499;
-30.0000;0.4103;1.2593;
-29.7000;0.4111;1.2710;
-29.4000;0.4127;1.2663;
-29.1000;0.4127;1.2570;
-28.8000;0.4103;1.2546;
-28.5000;0.4111;1.2546;
-28.2000;0.4192;1.2757;
-27.9000;0.4135;1.2499;
-27.6000;0.4103;1.2453;
-27.3000;0.4094;1.2476;
-27.0000;0.4103;1.2476;
-26.7000;0.4111;1.2453;
-26.4000;0.4127;1.2453;
-26.1000;0.4127;1.2476;
-25.8000;0.4103;1.2406;
-25.5000;0.4111;1.2476;
-25.2000;0.4111;1.2476;
-24.9000;0.4111;1.2406;
-24.6000;0.4151;1.2476;
-24.3000;0.4062;1.2336;
-24.0000;0.4119;1.2382;
-23.7000;0.4103;1.2382;
-23.4000;0.4111;1.2382;
-23.1000;0.4111;1.2406;
-22.8000;0.4119;1.2429;
-22.5000;0.4111;1.2523;
-22.2000;0.4119;1.2546;
-21.9000;0.4103;1.2476;
-21.6000;0.4127;1.2382;
-21.3000;0.4094;1.2289;
-21.0000;0.4078;1.2289;
-20.7000;0.4086;1.2289;
-20.4000;0.4046;1.2312;
-20.1000;0.4127;1.2523;
-19.8000;0.4119;1.2453;
-19.5000;0.4103;1.2429;
-19.2000;0.4119;1.2406;
-18.9000;0.4119;1.2429;
-18.6000;0.4086;1.2429;
-18.3000;0.4094;1.2593;
-18.0000;0.4094;1.2687;
-17.7000;0.4103;1.2616;
-17.4000;0.4078;1.2593;
-17.1000;0.4111;1.2616;
-16.8000;0.4111;1.2616;
-16.5000;0.4103;1.2546;
-16.2000;0.4078;1.2429;
-15.9000;0.4135;1.2476;
-15.6000;0.4119;1.2429;
-15.3000;0.4119;1.2476;
-15.0000;0.4119;1.2453;
-14.7000;0.4094;1.2382;
-14.4000;0.4103;1.2359;
-14.1000;0.4119;1.2453;
-13.8000;0.4111;1.2359;
-13.5000;0.4119;1.2429;
-13.2000;0.4143;1.2523;
-12.9000;0.4103;1.2570;
-12.6000;0.4070;1.2523;
-12.3000;0.4103;1.2570;
-12.0000;0.4086;1.2476;
-11.7000;0.4086;1.2499;
-11.4000;0.4119;1.2546;
-11.1000;0.4094;1.2476;
-10.8000;0.4111;1.2429;
-10.5000;0.4151;1.2499;
-10.2000;0.4103;1.2359;
-9.9000;0.4119;1.2359;
-9.6000;0.4119;1.2336;
-9.3000;0.4070;1.2195;
-9.0000;0.4103;1.2242;
-8.7000;0.4119;1.2336;
-8.4000;0.4127;1.2406;
-8.1000;0.4119;1.2453;
-7.8000;0.4103;1.2476;
-7.5000;0.4119;1.2546;
-7.2000;0.4119;1.2523;
-6.9000;0.4103;1.2546;
-6.6000;0.4127;1.2570;
-6.3000;0.4119;1.2523;
-6.0000;0.4078;1.2523;
-5.7000;0.4094;1.2476;
-5.4000;0.4111;1.2499;
-5.1000;0.4086;1.2499;
-4.8000;0.4119;1.2546;
-4.5000;0.4103;1.2476;
-4.2000;0.4094;1.2499;
-3.9000;0.4111;1.2570;
-3.6000;0.4111;1.2476;
-3.3000;0.4094;1.2429;
-3.0000;0.4103;1.2406;
-2.7000;0.4094;1.2570;
-2.4000;0.4103;1.2616;
-2.1000;0.4103;1.2663;
-1.8000;0.4094;1.2733;
-1.5000;0.4103;1.2733;
-1.2000;0.4135;1.2733;
-0.9000;0.4103;1.2570;
-0.6000;0.4119;1.2570;
-0.3000;0.4127;1.2570;
0.0000;0.4127;1.2570;
0.3000;0.4274;1.2640;
0.6000;0.4607;1.3155;
0.9000;0.4843;1.3576;
1.2000;0.5096;1.4091;
1.5000;0.5226;1.4512;
1.8000;0.5389;1.4934;
2.1000;0.5470;1.5191;
2.4000;0.5584;1.5566;
2.7000;0.5625;1.5683;
3.0000;0.5674;1.5893;
3.3000;0.5722;1.6127;
3.6000;0.5779;1.6198;
3.9000;0.5796;1.6221;
4.2000;0.5861;1.6362;
4.5000;0.5902;1.6455;
4.8000;0.5926;1.6549;
5.1000;0.5942;1.6549;
5.4000;0.5950;1.6572;
5.7000;0.5967;1.6596;
6.0000;0.5942;1.6525;
6.3000;0.6015;1.6713;
6.6000;0.6007;1.6666;
6.9000;0.6081;1.6759;
7.2000;0.6056;1.6642;
7.5000;0.5975;1.6385;
7.8000;0.6113;1.6713;
8.1000;0.6040;1.6596;
8.4000;0.6081;1.6713;
8.7000;0.6024;1.6502;
9.0000;0.6097;1.6666;
9.3000;0.6138;1.6736;
9.6000;0.6154;1.6736;
9.9000;0.6121;1.6525;
10.2000;0.6178;1.6713;
10.5000;0.6162;1.6642;
10.8000;0.6203;1.6736;
11.1000;0.6227;1.6830;
11.4000;0.6268;1.6923;
11.7000;0.6235;1.6806;
12.0000;0.6276;1.6783;
12.3000;0.6276;1.6783;
12.6000;0.6268;1.6783;
12.9000;0.6309;1.6830;
13.2000;0.6317;1.6830;
13.5000;0.6292;1.6806;
13.8000;0.6317;1.6830;
14.1000;0.6333;1.6689;
14.4000;0.6365;1.6642;
14.7000;0.6365;1.6619;
15.0000;0.6390;1.6596;
15.3000;0.6398;1.6596;
15.6000;0.6414;1.6572;
15.9000;0.6398;1.6432;
16.2000;0.6431;1.6479;
16.5000;0.6455;1.6549;
16.8000;0.6447;1.6455;
17.1000;0.6463;1.6432;
17.4000;0.6488;1.6432;
17.7000;0.6488;1.6408;
18.0000;0.6488;1.6385;
18.3000;0.6512;1.6525;
18.6000;0.6512;1.6549;
18.9000;0.6496;1.6432;
19.2000;0.6536;1.6479;
19.5000;0.6520;1.6432;
19.8000;0.6569;1.6455;
20.1000;0.6553;1.6408;
20.4000;0.6585;1.6362;
20.7000;0.6602;1.6432;
21.0000;0.6602;1.6502;
21.3000;0.6626;1.6572;
21.6000;0.6610;1.6502;
21.9000;0.6618;1.6455;
22.2000;0.6634;1.6549;
22.5000;0.6650;1.6572;
22.8000;0.6650;1.6572;
23.1000;0.6659;1.6619;
23.4000;0.6699;1.6642;
23.7000;0.6659;1.6596;
24.0000;0.6667;1.6502;
24.3000;0.6675;1.6479;
24.6000;0.6650;1.6408;
24.9000;0.6699;1.6572;
25.2000;0.6691;1.6525;
25.5000;0.6667;1.6549;
25.8000;0.6716;1.6689;
26.1000;0.6691;1.6572;
26.4000;0.6707;1.6549;
26.7000;0.6691;1.6455;
27.0000;0.6756;1.6572;
27.3000;0.6724;1.6525;
27.6000;0.6732;1.6549;
27.9000;0.6764;1.6596;
28.2000;0.6781;1.6619;
28.5000;0.6772;1.6525;
28.8000;0.6756;1.6549;
29.1000;0.6764;1.6479;
29.4000;0.6764;1.6479;
29.7000;0.6789;1.6572;
30.0000;0.6764;1.6572;
30.3000;0.6789;1.6689;
30.6000;0.6789;1.6642;
30.9000;0.6862;1.6759;
31.2000;0.6789;1.6619;
31.5000;0.6838;1.6736;
31.8000;0.6813;1.6619;
32.1000;0.6805;1.6479;
32.4000;0.6805;1.6385;
32.7000;0.6821;1.6338;
33.0000;0.6829;1.6268;
33.3000;0.6838;1.6268;
33.6000;0.6838;1.6268;
33.9000;0.6813;1.6198;
34.2000;0.6821;1.6245;
34.5000;0.6911;1.6338;
34.8000;0.6870;1.6174;
35.1000;0.6870;1.6174;
35.4000;0.6854;1.6104;
35.7000;0.6862;1.6127;
36.0000;0.6878;1.6034;
36.3000;0.6911;1.6174;
36.6000;0.6886;1.6081;
36.9000;0.6903;1.6151;
37.2000;0.6903;1.6174;
37.5000;0.6886;1.6151;
37.8000;0.6895;1.6221;
38.1000;0.6911;1.6174;
38.4000;0.6927;1.6127;
38.7000;0.7025;1.6291;
39.0000;0.6927;1.6104;
39.3000;0.6919;1.6104;
39.6000;0.6935;1.6198;
39.9000;0.6935;1.6221;
40.2000;0.6943;1.6221;
40.5000;0.6927;1.6221;
40.8000;0.6935;1.6198;
41.1000;0.6960;1.6291;
41.4000;0.7000;1.6385;
41.7000;0.6960;1.6291;
42.0000;0.7041;1.6549;
42.3000;0.6952;1.6362;
42.6000;0.6935;1.6385;
42.9000;0.6960;1.6432;
43.2000;0.6903;1.6198;
43.5000;0.6960;1.6338;
43.8000;0.6952;1.6221;
44.1000;0.6960;1.6151;
44.4000;0.6952;1.6198;
44.7000;0.6952;1.6104;
45.0000;0.6952;1.6104;
45.3000;0.6960;1.6104;
45.6000;0.6984;1.6198;
45.9000;0.6984;1.6198;
46.2000;0.6984;1.6221;
46.5000;0.6984;1.6081;
46.8000;0.7000;1.6034;
47.1000;0.7000;1.5940;
47.4000;0.7033;1.5964;
47.7000;0.7017;1.5964;
48.0000;0.6927;1.5753;
48.3000;0.7009;1.5940;
48.6000;0.7009;1.5940;
48.9000;0.7123;1.6221;
49.2000;0.7017;1.6010;
49.5000;0.7033;1.6127;
49.8000;0.7025;1.6057;
50.1000;0.7041;1.6010;
50.4000;0.7033;1.6081;
50.7000;0.7017;1.6081;
51.0000;0.7033;1.6127;
51.3000;0.7090;1.6245;
51.6000;0.7049;1.6198;
51.9000;0.7049;1.6198;
52.2000;0.7049;1.6198;
52.5000;0.7033;1.6104;
52.8000;0.6984;1.5964;
53.1000;0.7041;1.6010;
53.4000;0.7049;1.6104;
53.7000;0.7057;1.6034;
54.0000;0.7074;1.5964;
54.3000;0.7074;1.6104;
54.6000;0.7082;1.6057;
54.9000;0.7082;1.6127;
55.2000;0.7074;1.6198;
55.5000;0.7066;1.6198;
55.8000;0.7066;1.6081;
56.1000;0.7074;1.6104;
56.4000;0.7074;1.6174;
56.7000;0.7074;1.6151;
57.0000;0.7082;1.6221;
57.3000;0.7074;1.6151;
57.6000;0.7074;1.6104;
57.9000;0.7098;1.6104;
58.2000;0.7090;1.6081;
58.5000;0.7090;1.6081;
58.8000;0.7114;1.6104;
59.1000;0.7106;1.6081;
59.4000;0.7082;1.5964;
59.7000;0.7082;1.5893;
60.0000;0.7106;1.5964;
60.3000;0.7114;1.5987;
60.6000;0.7123;1.6010;
60.9000;0.7123;1.6081;
61.2000;0.7106;1.6081;
61.5000;0.7123;1.6057;
61.8000;0.7114;1.6010;
62.1000;0.7131;1.6010;
62.4000;0.7131;1.6010;
62.7000;0.7123;1.6104;
63.0000;0.7114;1.6034;
63.3000;0.7114;1.5964;
63.6000;0.7147;1.6057;
63.9000;0.7123;1.6104;
64.2000;0.7147;1.6034;
64.5000;0.7131;1.5964;
64.8000;0.7114;1.5964;
65.1000;0.7139;1.6081;
65.4000;0.7163;1.5987;
65.7000;0.7155;1.6104;
66.0000;0.7123;1.5987;
66.3000;0.7155;1.6010;
66.6000;0.7139;1.6034;
66.9000;0.7147;1.6010;
67.2000;0.7163;1.5964;
67.5000;0.7179;1.5917;
67.8000;0.7155;1.5823;
68.1000;0.7163;1.5940;
68.4000;0.7171;1.6010;
68.7000;0.7155;1.5987;
69.0000;0.7131;1.5987;
69.3000;0.7179;1.6104;
69.6000;0.7196;1.6081;
69.9000;0.7155;1.6034;
70.2000;0.7179;1.6057;
70.5000;0.7220;1.6174;
70.8000;0.7188;1.6081;
71.1000;0.7171;1.6010;
71.4000;0.7163;1.5987;
71.7000;0.7188;1.6081;
72.0000;0.7196;1.6034;
72.3000;0.7179;1.5964;
72.6000;0.7188;1.5964;
72.9000;0.7204;1.5987;
73.2000;0.7204;1.6057;
73.5000;0.7212;1.5987;
73.8000;0.7188;1.5940;
74.1000;0.7188;1.5823;
74.4000;0.7285;1.6057;
74.7000;0.7228;1.5893;
75.0000;0.7196;1.5847;
75.3000;0.7212;1.5917;
75.6000;0.7212;1.5870;
75.9000;0.7220;1.5870;
76.2000;0.7220;1.5753;
76.5000;0.7220;1.5800;
76.8000;0.7236;1.5847;
77.1000;0.7228;1.5847;
77.4000;0.7212;1.5776;
77.7000;0.7236;1.5847;
78.0000;0.7179;1.5776;
78.3000;0.7236;1.5917;
78.6000;0.7163;1.5730;
78.9000;0.7228;1.5987;
79.2000;0.7236;1.5964;
79.5000;0.7236;1.5987;
79.8000;0.7253;1.5987;
80.1000;0.7228;1.5917;
80.4000;0.7236;1.5893;
80.7000;0.7212;1.5800;
81.0000;0.7236;1.5823;
81.3000;0.7236;1.5776;
81.6000;0.7236;1.5823;
81.9000;0.7220;1.5730;
82.2000;0.7236;1.5753;
82.5000;0.7245;1.5753;
82.8000;0.7220;1.5636;
83.1000;0.7245;1.5730;
83.4000;0.7253;1.5706;
83.7000;0.7228;1.5636;
84.0000;0.7253;1.5683;
84.3000;0.7261;1.5706;
84.6000;0.7269;1.5659;
84.9000;0.7261;1.5613;
85.2000;0.7277;1.5636;
85.5000;0.7269;1.5636;
85.8000;0.7277;1.5753;
86.1000;0.7277;1.5730;
86.4000;0.7261;1.5659;
86.7000;0.7261;1.5613;
87.0000;0.7269;1.5566;
87.3000;0.7245;1.5542;
87.6000;0.7245;1.5542;
87.9000;0.7277;1.5659;
88.2000;0.7277;1.5636;
88.5000;0.7269;1.5683;
88.8000;0.7285;1.5659;
89.1000;0.7269;1.5566;
89.4000;0.7277;1.5519;
89.7000;0.7285;1.5519;
90.0000;0.7277;1.5472;
90.3000;0.7285;1.5496;
90.6000;0.7293;1.5472;
90.9000;0.7293;1.5425;
91.2000;0.7269;1.5449;
91.5000;0.7302;1.5589;
91.8000;0.7269;1.5542;
92.1000;0.7285;1.5472;
92.4000;0.7269;1.5402;
92.7000;0.7269;1.5355;
93.0000;0.7350;1.5566;
93.3000;0.7302;1.5519;
93.6000;0.7293;1.5425;
93.9000;0.7293;1.5378;
94.2000;0.7277;1.5285;
94.5000;0.7285;1.5191;
94.8000;0.7302;1.5285;
95.1000;0.7302;1.5308;
95.4000;0.7285;1.5308;
95.7000;0.7302;1.5402;
96.0000;0.7293;1.5402;
96.3000;0.7310;1.5378;
96.6000;0.7293;1.5261;
96.9000;0.7302;1.5261;
97.2000;0.7269;1.5144;
97.5000;0.7261;1.5074;
97.8000;0.7196;1.5004;
98.1000;0.7302;1.5308;
98.4000;0.7383;1.5402;
98.7000;0.7318;1.5215;
99.0000;0.7277;1.5168;
99.3000;0.7326;1.5261;
99.6000;0.7302;1.5215;
99.9000;0.7375;1.5261;
100.2000;0.7334;1.5121;
100.5000;0.7391;1.5285;
100.8000;0.7326;1.5191;
101.1000;0.7334;1.5285;
101.4000;0.7342;1.5332;
101.7000;0.7302;1.5402;
102.0000;0.7407;1.5730;
102.3000;0.7310;1.5472;
102.6000;0.7383;1.5636;
102.9000;0.7383;1.5636;
103.2000;0.7367;1.5566;
103.5000;0.7310;1.5355;
103.8000;0.7285;1.5332;
104.1000;0.7383;1.5542;
104.4000;0.7318;1.5425;
104.7000;0.7326;1.5449;
105.0000;0.7318;1.5425;
105.3000;0.7326;1.5378;
105.6000;0.7310;1.5285;
105.9000;0.7334;1.5332;
106.2000;0.7342;1.5355;
106.5000;0.7342;1.5332;
106.8000;0.7334;1.5261;
107.1000;0.7326;1.5191;
107.4000;0.7350;1.5215;
107.7000;0.7399;1.5378;
108.0000;0.7350;1.5261;
108.3000;0.7367;1.5332;
108.6000;0.7367;1.5402;
108.9000;0.7326;1.5261;
109.2000;0.7350;1.5308;
109.5000;0.7334;1.5378;
109.8000;0.7350;1.5425;
110.1000;0.7367;1.5308;
110.4000;0.7359;1.5308;
110.7000;0.7334;1.5355;
111.0000;0.7350;1.5449;
111.3000;0.7359;1.5402;
111.6000;0.7318;1.5285;
111.9000;0.7350;1.5355;
112.2000;0.7350;1.5378;
112.5000;0.7326;1.5191;
112.8000;0.7350;1.5285;
113.1000;0.7375;1.5402;
113.4000;0.7350;1.5355;
113.7000;0.7367;1.5425;
114.0000;0.7350;1.5332;
114.3000;0.7359;1.5402;
114.6000;0.7359;1.5402;
114.9000;0.7334;1.5425;
115.2000;0.7375;1.5613;
115.5000;0.7383;1.5613;
115.8000;0.7326;1.5519;
116.1000;0.7359;1.5519;
116.4000;0.7350;1.5519;
116.7000;0.7359;1.5542;
117.0000;0.7285;1.5355;
117.3000;0.7334;1.5542;
117.6000;0.7350;1.5542;
117.9000;0.7416;1.5636;
118.2000;0.7318;1.5402;
118.5000;0.7350;1.5496;
118.8000;0.7359;1.5519;
119.1000;0.7383;1.5636;
119.4000;0.7359;1.5613;
119.7000;0.7383;1.5636;
120.0000;0.7342;1.5402;
120.3000;0.7334;1.5332;
120.6000;0.7359;1.5402;
120.9000;0.7391;1.5449;
121.2000;0.7375;1.5308;
121.5000;0.7359;1.5215;
121.8000;0.7302;1.5051;
122.1000;0.7293;1.5051;
122.4000;0.7375;1.5238;
122.7000;0.7391;1.5355;
123.0000;0.7342;1.5191;
123.3000;0.7350;1.5121;
123.6000;0.7407;1.5168;
123.9000;0.7375;1.5238;
124.2000;0.7359;1.5238;
124.5000;0.7407;1.5402;
124.8000;0.7407;1.5402;
125.1000;0.7416;1.5332;
125.4000;0.7391;1.5355;
125.7000;0.7375;1.5285;
126.0000;0.7383;1.5238;
126.3000;0.7375;1.5261;
126.6000;0.7318;1.5144;
126.9000;0.7367;1.5402;
127.2000;0.7367;1.5472;
127.5000;0.7383;1.5425;
127.8000;0.7383;1.5378;
128.1000;0.7367;1.5355;
128.4000;0.7342;1.5355;
128.7000;0.7399;1.5542;
129.0000;0.7367;1.5496;
129.3000;0.7383;1.5472;
129.6000;0.7375;1.5332;
129.9000;0.7375;1.5332;
130.2000;0.7391;1.5425;
130.5000;0.7359;1.5378;
130.8000;0.7399;1.5378;
131.1000;0.7359;1.5285;
131.4000;0.7383;1.5378;
131.7000;0.7383;1.5449;
132.0000;0.7391;1.5519;
132.3000;0.7367;1.5402;
132.6000;0.7383;1.5402;
132.9000;0.7383;1.5332;
133.2000;0.7399;1.5425;
133.5000;0.7375;1.5425;
133.8000;0.7399;1.5449;
134.1000;0.7399;1.5472;
134.4000;0.7407;1.5496;
134.7000;0.7505;1.5800;
135.0000;0.7399;1.5636;
135.3000;0.7399;1.5613;
135.6000;0.7407;1.5613;
135.9000;0.7367;1.5519;
136.2000;0.7367;1.5613;
136.5000;0.7416;1.5613;
136.8000;0.7391;1.5496;
137.1000;0.7391;1.5519;
137.4000;0.7375;1.5472;
137.7000;0.7383;1.5425;
138.0000;0.7391;1.5472;
138.3000;0.7416;1.5519;
138.6000;0.7391;1.5402;
138.9000;0.7432;1.5449;
139.2000;0.7432;1.5449;
139.5000;0.7399;1.5402;
139.8000;0.7416;1.5425;
140.1000;0.7375;1.5355;
140.4000;0.7375;1.5425;
140.7000;0.7383;1.5449;
141.0000;0.7375;1.5332;
141.3000;0.7367;1.5378;
141.6000;0.7391;1.5425;
141.9000;0.7375;1.5332;
142.2000;0.7383;1.5355;
142.5000;0.7391;1.5425;
142.8000;0.7350;1.5191;
143.1000;0.7407;1.5285;
143.4000;0.7383;1.5238;
143.7000;0.7383;1.5168;
144.0000;0.7367;1.5191;
144.3000;0.7383;1.5308;
144.6000;0.7391;1.5402;
144.9000;0.7383;1.5378;
145.2000;0.7407;1.5472;
145.5000;0.7391;1.5472;
145.8000;0.7416;1.5496;
146.1000;0.7399;1.5542;
146.4000;0.7399;1.5613;
146.7000;0.7399;1.5613;
147.0000;0.7407;1.5542;
147.3000;0.7456;1.5636;
147.6000;0.7399;1.5449;
147.9000;0.7383;1.5402;
148.2000;0.7399;1.5425;
148.5000;0.7367;1.5355;
148.8000;0.7391;1.5355;
149.1000;0.7383;1.5355;
149.4000;0.7391;1.5449;
149.7000;0.7407;1.5519;
150.0000;0.7399;1.5519;
150.3000;0.7367;1.5542;
150.6000;0.7407;1.5613;
150.9000;0.7399;1.5542;
151.2000;0.7399;1.5589;
151.5000;0.7391;1.5496;
151.8000;0.7383;1.5378;
152.1000;0.7383;1.5308;
152.4000;0.7399;1.5332;
152.7000;0.7391;1.5332;
153.0000;0.7399;1.5355;
153.3000;0.7399;1.5425;
153.6000;0.7391;1.5402;
153.9000;0.7383;1.5425;
154.2000;0.7391;1.5378;
154.5000;0.7383;1.5425;
154.8000;0.7416;1.5425;
155.1000;0.7383;1.5355;
155.4000;0.7407;1.5402;
155.7000;0.7359;1.5308;
156.0000;0.7407;1.5402;
156.3000;0.7407;1.5308;
156.6000;0.7383;1.5355;
156.9000;0.7367;1.5285;
157.2000;0.7407;1.5402;
157.5000;0.7416;1.5425;
157.8000;0.7448;1.5589;
158.1000;0.7383;1.5519;
158.4000;0.7399;1.5496;
158.7000;0.7416;1.5472;
159.0000;0.7383;1.5402;
159.3000;0.7416;1.5402;
159.6000;0.7424;1.5472;
159.9000;0.7407;1.5496;
160.2000;0.7383;1.5378;
160.5000;0.7399;1.5472;
160.8000;0.7424;1.5542;
161.1000;0.7391;1.5519;
161.4000;0.7416;1.5613;
161.7000;0.7407;1.5636;
162.0000;0.7391;1.5636;
162.3000;0.7391;1.5683;
162.6000;0.7391;1.5683;
162.9000;0.7456;1.5659;
163.2000;0.7399;1.5519;
163.5000;0.7407;1.5472;
163.8000;0.7407;1.5425;
164.1000;0.7391;1.5378;
164.4000;0.7399;1.5402;
164.7000;0.7448;1.5472;
165.0000;0.7375;1.5215;
165.3000;0.7416;1.5261;
165.6000;0.7391;1.5215;
165.9000;0.7399;1.5261;
166.2000;0.7407;1.5355;
166.5000;0.7416;1.5378;
166.8000;0.7399;1.5238;
167.1000;0.7407;1.5332;
167.4000;0.7407;1.5378;
167.7000;0.7383;1.5402;
168.0000;0.7391;1.5402;
168.3000;0.7334;1.5168;
168.6000;0.7399;1.5378;
168.9000;0.7424;1.5425;
169.2000;0.7375;1.5355;
169.5000;0.7391;1.5449;
169.8000;0.7399;1.5425;
170.1000;0.7407;1.5472;
170.4000;0.7456;1.5589;
170.7000;0.7399;1.5449;
171.0000;0.7407;1.5449;
171.3000;0.7399;1.5472;
171.6000;0.7424;1.5519;
171.9000;0.7407;1.5425;
172.2000;0.7383;1.5402;
172.5000;0.7416;1.5472;
172.8000;0.7424;1.5496;
173.1000;0.7424;1.5402;
173.4000;0.7407;1.5472;
173.7000;0.7399;1.5566;
174.0000;0.7416;1.5613;
174.3000;0.7391;1.5519;
174.6000;0.7383;1.5496;
174.9000;0.7391;1.5496;
175.2000;0.7383;1.5449;
175.5000;0.7399;1.5425;
175.8000;0.7367;1.5449;
176.1000;0.7383;1.5496;
176.4000;0.7399;1.5472;
176.7000;0.7399;1.5496;
177.0000;0.7424;1.5659;
177.3000;0.7407;1.5496;
177.6000;0.7424;1.5472;
177.9000;0.7375;1.5402;
178.2000;0.7407;1.5378;
178.5000;0.7391;1.5402;
178.8000;0.7424;1.5449;
179.1000;0.7383;1.5425;
179.4000;0.7383;1.5496;
179.7000;0.7334;1.5355;
180.0000;0.7375;1.5355;
180.3000;0.7407;1.5425;
180.6000;0.7399;1.5378;
180.9000;0.7407;1.5332;
181.2000;0.7399;1.5332;
181.5000;0.7407;1.5285;
181.8000;0.7481;1.5449;
182.1000;0.7399;1.5238;
182.4000;0.7391;1.5191;
182.7000;0.7383;1.5285;
183.0000;0.7399;1.5308;
183.3000;0.7399;1.5308;
183.6000;0.7407;1.5332;
183.9000;0.7391;1.5308;
184.2000;0.7416;1.5378;
184.5000;0.7399;1.5215;
184.8000;0.7407;1.5191;
185.1000;0.7416;1.5285;
185.4000;0.7407;1.5425;
185.7000;0.7424;1.5472;
186.0000;0.7399;1.5472;
186.3000;0.7399;1.5449;
186.6000;0.7383;1.5449;
186.9000;0.7407;1.5542;
187.2000;0.7399;1.5496;
187.5000;0.7391;1.5449;
187.8000;0.7383;1.5378;
188.1000;0.7399;1.5355;
188.4000;0.7399;1.5332;
188.7000;0.7407;1.5449;
189.0000;0.7407;1.5378;
189.3000;0.7407;1.5425;
189.6000;0.7383;1.5355;
189.9000;0.7407;1.5425;
190.2000;0.7391;1.5332;
190.5000;0.7391;1.5308;
190.8000;0.7375;1.5261;
191.1000;0.7383;1.5308;
191.4000;0.7407;1.5355;
191.7000;0.7383;1.5355;
192.0000;0.7416;1.5449;
192.3000;0.7391;1.5402;
192.6000;0.7383;1.5402;
192.9000;0.7375;1.5496;
193.2000;0.7473;1.5847;
193.5000;0.7399;1.5730;
193.8000;0.7375;1.5542;
194.1000;0.7399;1.5496;
194.4000;0.7391;1.5402;
194.7000;0.7464;1.5472;
195.0000;0.7391;1.5378;
195.3000;0.7383;1.5378;
195.6000;0.7326;1.5332;
195.9000;0.7367;1.5519;
196.2000;0.7383;1.5542;
196.5000;0.7383;1.5542;
196.8000;0.7318;1.5378;
197.1000;0.7407;1.5613;
197.4000;0.7399;1.5472;
197.7000;0.7399;1.5449;
198.0000;0.7424;1.5378;
198.3000;0.7399;1.5378;
198.6000;0.7391;1.5355;
198.9000;0.7359;1.5308;
199.2000;0.7407;1.5402;
199.5000;0.7416;1.5402;
199.8000;0.7416;1.5425;
200.1000;0.7383;1.5449;
200.4000;0.7383;1.5425;
200.7000;0.7391;1.5519;
201.0000;0.7416;1.5613;
201.3000;0.7407;1.5542;
201.6000;0.7391;1.5472;
201.9000;0.7399;1.5519;
202.2000;0.7391;1.5472;
202.5000;0.7391;1.5496;
202.8000;0.7407;1.5496;
203.1000;0.7367;1.5355;
203.4000;0.7399;1.5425;
203.7000;0.7310;1.5261;
204.0000;0.7375;1.5472;
204.3000;0.7334;1.5308;
204.6000;0.7391;1.5378;
204.9000;0.7456;1.5449;
205.2000;0.7383;1.5285;
205.5000;0.7383;1.5261;
205.8000;0.7391;1.5215;
206.1000;0.7391;1.5261;
206.4000;0.7432;1.5378;
206.7000;0.7391;1.5332;
207.0000;0.7407;1.5378;
207.3000;0.7416;1.5425;
207.6000;0.7383;1.5542;
207.9000;0.7391;1.5519;
208.2000;0.7424;1.5566;
208.5000;0.7342;1.5378;
208.8000;0.7407;1.5566;
209.1000;0.7383;1.5519;
209.4000;0.7399;1.5613;
209.7000;0.7399;1.5683;
210.0000;0.7367;1.5566;
210.3000;0.7375;1.5613;
210.6000;0.7383;1.5613;
210.9000;0.7424;1.5730;
211.2000;0.7448;1.5683;
211.5000;0.7391;1.5519;
211.8000;0.7342;1.5332;
212.1000;0.7407;1.5542;
212.4000;0.7383;1.5589;
212.7000;0.7383;1.5566;
213.0000;0.7424;1.5613;
213.3000;0.7399;1.5425;
213.6000;0.7399;1.5425;
213.9000;0.7383;1.5332;
214.2000;0.7367;1.5402;
214.5000;0.7367;1.5472;
214.8000;0.7407;1.5589;
215.1000;0.7440;1.5613;
215.4000;0.7367;1.5472;
215.7000;0.7342;1.5402;
216.0000;0.7375;1.5496;
216.3000;0.7456;1.5730;
216.6000;0.7489;1.5823;
216.9000;0.7383;1.5613;
217.2000;0.7375;1.5730;
217.5000;0.7383;1.5753;
217.8000;0.7391;1.5706;
218.1000;0.7383;1.5706;
218.4000;0.7391;1.5776;
218.7000;0.7391;1.5730;
219.0000;0.7383;1.5636;
219.3000;0.7383;1.5613;
219.6000;0.7383;1.5613;
219.9000;0.7391;1.5659;
220.2000;0.7399;1.5683;
220.5000;0.7367;1.5613;
220.8000;0.7375;1.5613;
221.1000;0.7399;1.5659;
221.4000;0.7375;1.5659;
221.7000;0.7375;1.5613;
222.0000;0.7367;1.5683;
222.3000;0.7399;1.5753;
222.6000;0.7391;1.5659;
222.9000;0.7391;1.5683;
223.2000;0.7375;1.5706;
223.5000;0.7399;1.5800;
223.8000;0.7399;1.5706;
224.1000;0.7375;1.5636;
224.4000;0.7391;1.5613;
224.7000;0.7416;1.5730;
225.0000;0.7391;1.5706;
225.3000;0.7383;1.5730;
225.6000;0.7359;1.5730;
225.9000;0.7383;1.5776;
226.2000;0.7367;1.5730;
226.5000;0.7383;1.5659;
226.8000;0.7359;1.5589;
227.1000;0.7375;1.5659;
227.4000;0.7367;1.5636;
227.7000;0.7399;1.5706;
228.0000;0.7399;1.5706;
228.3000;0.7391;1.5613;
228.6000;0.7424;1.5776;
228.9000;0.7375;1.5659;
229.2000;0.7375;1.5542;
229.5000;0.7350;1.5496;
229.8000;0.7367;1.5378;
230.1000;0.7391;1.5449;
230.4000;0.7391;1.5402;
230.7000;0.7367;1.5308;
231.0000;0.7245;1.5074;
231.3000;0.7391;1.5519;
231.6000;0.7342;1.5425;
231.9000;0.7375;1.5542;
232.2000;0.7367;1.5519;
232.5000;0.7383;1.5519;
232.8000;0.7481;1.5730;
233.1000;0.7424;1.5613;
233.4000;0.7342;1.5472;
233.7000;0.7375;1.5542;
234.0000;0.7432;1.5659;
234.3000;0.7350;1.5542;
234.6000;0.7367;1.5613;
234.9000;0.7359;1.5566;
235.2000;0.7359;1.5706;
235.5000;0.7367;1.5636;
235.8000;0.7367;1.5589;
236.1000;0.7350;1.5519;
236.4000;0.7407;1.5706;
236.7000;0.7367;1.5566;
237.0000;0.7367;1.5613;
237.3000;0.7342;1.5519;
237.6000;0.7383;1.5753;
237.9000;0.7334;1.5659;
238.2000;0.7375;1.5706;
238.5000;0.7318;1.5566;
238.8000;0.7367;1.5589;
239.1000;0.7375;1.5683;
239.4000;0.7342;1.5589;
239.7000;0.7367;1.5706;
240.0000;0.7367;1.5730;
240.3000;0.7391;1.5730;
240.6000;0.7367;1.5730;
240.9000;0.7391;1.5683;
241.2000;0.7359;1.5613;
241.5000;0.7383;1.5706;
241.8000;0.7383;1.5683;
242.1000;0.7383;1.5706;
242.4000;0.7367;1.5730;
242.7000;0.7391;1.5870;
243.0000;0.7318;1.5613;
243.3000;0.7375;1.5776;
243.6000;0.7375;1.5753;
243.9000;0.7350;1.5753;
244.2000;0.7375;1.5776;
244.5000;0.7383;1.5730;
244.8000;0.7359;1.5800;
245.1000;0.7375;1.5800;
245.4000;0.7383;1.5730;
245.7000;0.7399;1.5753;
246.0000;0.7383;1.5730;
246.3000;0.7375;1.5683;
246.6000;0.7407;1.5823;
246.9000;0.7399;1.5823;
247.2000;0.7375;1.5776;
247.5000;0.7359;1.5776;
247.8000;0.7383;1.5870;
248.1000;0.7367;1.5940;
248.4000;0.7342;1.5917;
248.7000;0.7367;1.5917;
249.0000;0.7367;1.5893;
249.3000;0.7367;1.5800;
249.6000;0.7359;1.5753;
249.9000;0.7367;1.5613;
250.2000;0.7359;1.5496;
250.5000;0.7375;1.5613;
250.8000;0.7464;1.5847;
251.1000;0.7359;1.5566;
251.4000;0.7375;1.5542;
251.7000;0.7383;1.5636;
252.0000;0.7383;1.5730;
252.3000;0.7367;1.5776;
252.6000;0.7473;1.6034;
252.9000;0.7367;1.5823;
253.2000;0.7375;1.5776;
253.5000;0.7367;1.5706;
253.8000;0.7285;1.5496;
254.1000;0.7391;1.5730;
254.4000;0.7375;1.5706;
254.7000;0.7375;1.5753;
255.0000;0.7318;1.5706;
255.3000;0.7359;1.5800;
255.6000;0.7342;1.5847;
255.9000;0.7318;1.5706;
256.2000;0.7359;1.5870;
256.5000;0.7326;1.5683;
256.8000;0.7407;1.5870;
257.1000;0.7367;1.5823;
257.4000;0.7359;1.5870;
257.7000;0.7350;1.5870;
258.0000;0.7359;1.5893;
258.3000;0.7407;1.5940;
258.6000;0.7375;1.5847;
258.9000;0.7359;1.5823;
259.2000;0.7383;1.5964;
259.5000;0.7342;1.5823;
259.8000;0.7375;1.5940;
260.1000;0.7367;1.5917;
260.4000;0.7350;1.5917;
260.7000;0.7359;1.5940;
261.0000;0.7375;1.5870;
261.3000;0.7350;1.5753;
261.6000;0.7350;1.5753;
261.9000;0.7359;1.5753;
262.2000;0.7359;1.5706;
262.5000;0.7350;1.5659;
262.8000;0.7367;1.5636;
263.1000;0.7350;1.5636;
263.4000;0.7350;1.5519;
263.7000;0.7367;1.5472;
264.0000;0.7367;1.5519;
264.3000;0.7334;1.5425;
264.6000;0.7367;1.5472;
264.9000;0.7367;1.5542;
265.2000;0.7359;1.5613;
265.5000;0.7367;1.5706;
265.8000;0.7367;1.5659;
266.1000;0.7359;1.5613;
266.4000;0.7350;1.5636;
266.7000;0.7350;1.5730;
267.0000;0.7359;1.5753;
267.3000;0.7367;1.5800;
267.6000;0.7342;1.5823;
267.9000;0.7334;1.5730;
268.2000;0.7342;1.5776;
268.5000;0.7375;1.5917;
268.8000;0.7375;1.5870;
269.1000;0.7359;1.5893;
269.4000;0.7359;1.5870;
269.7000;0.7399;1.5917;
270.0000;0.7375;1.5870;
270.3000;0.7350;1.5776;
270.6000;0.7375;1.5800;
270.9000;0.7342;1.5800;
271.2000;0.7326;1.5753;
271.5000;0.7383;1.5776;
271.8000;0.7342;1.5659;
272.1000;0.7367;1.5753;
272.4000;0.7359;1.5776;
272.7000;0.7367;1.5847;
273.0000;0.7350;1.5776;
273.3000;0.7350;1.5753;
273.6000;0.7367;1.5730;
273.9000;0.7367;1.5683;
274.2000;0.7302;1.5589;
274.5000;0.7383;1.5870;
274.8000;0.7342;1.5730;
275.1000;0.7359;1.5800;
275.4000;0.7350;1.5730;
275.7000;0.7399;1.5823;
276.0000;0.7350;1.5776;
276.3000;0.7359;1.5753;
276.6000;0.7391;1.5753;
276.9000;0.7359;1.5636;
277.2000;0.7350;1.5589;
277.5000;0.7359;1.5706;
277.8000;0.7367;1.5730;
278.1000;0.7350;1.5753;
278.4000;0.7334;1.5730;
278.7000;0.7367;1.5800;
279.0000;0.7342;1.5823;
279.3000;0.7326;1.5800;
279.6000;0.7416;1.5893;
279.9000;0.7367;1.5870;
280.2000;0.7342;1.5753;
280.5000;0.7342;1.5706;
280.8000;0.7334;1.5613;
281.1000;0.7359;1.5636;
281.4000;0.7391;1.5800;
281.7000;0.7310;1.5566;
282.0000;0.7334;1.5636;
282.3000;0.7350;1.5659;
282.6000;0.7350;1.5636;
282.9000;0.7342;1.5589;
283.2000;0.7359;1.5683;
283.5000;0.7350;1.5683;
283.8000;0.7367;1.5800;
284.1000;0.7334;1.5730;
284.4000;0.7359;1.5730;
284.7000;0.7350;1.5706;
285.0000;0.7350;1.5753;
285.3000;0.7350;1.5659;
285.6000;0.7334;1.5589;
285.9000;0.7326;1.5613;
286.2000;0.7342;1.5800;
286.5000;0.7310;1.5776;
286.8000;0.7367;1.5800;
287.1000;0.7432;1.6010;
287.4000;0.7342;1.5753;
287.7000;0.7367;1.5800;
288.0000;0.7342;1.5706;
288.3000;0.7334;1.5683;
288.6000;0.7334;1.5730;
288.9000;0.7334;1.5753;
289.2000;0.7342;1.5636;
289.5000;0.7350;1.5659;
289.8000;0.7359;1.5659;
290.1000;0.7367;1.5706;
290.4000;0.7359;1.5636;
290.7000;0.7383;1.5613;
291.0000;0.7350;1.5496;
291.3000;0.7359;1.5659;
291.6000;0.7367;1.5823;
291.9000;0.7350;1.5847;
292.2000;0.7416;1.5987;
292.5000;0.7326;1.5823;
292.8000;0.7334;1.5893;
293.1000;0.7342;1.5870;
293.4000;0.7342;1.5847;
293.7000;0.7383;1.5870;
294.0000;0.7334;1.5776;
294.3000;0.7399;1.5987;
294.6000;0.7342;1.5800;
294.9000;0.7383;1.5893;
295.2000;0.7350;1.5730;
295.5000;0.7334;1.5800;
295.8000;0.7375;1.5870;
296.1000;0.7359;1.5800;
296.4000;0.7367;1.5940;
296.7000;0.7350;1.5964;
297.0000;0.7342;1.5917;
297.3000;0.7367;1.5964;
297.6000;0.7342;1.5823;
297.9000;0.7326;1.5776;
298.2000;0.7318;1.5753;
298.5000;0.7326;1.5776;
298.8000;0.7326;1.5776;
299.1000;0.7367;1.5776;
299.4000;0.7342;1.5706;
299.7000;0.7326;1.5753;
300.0000;0.7326;1.5776;
300.3000;0.7334;1.5800;
300.6000;0.7350;1.5823;
300.9000;0.7334;1.5847;
301.2000;0.7342;1.5847;
301.5000;0.7342;1.5870;
301.8000;0.7334;1.5823;
302.1000;0.7334;1.5893;
302.4000;0.7318;1.5893;
302.7000;0.7424;1.6127;
303.0000;0.7334;1.5753;
303.3000;0.7326;1.5776;
303.6000;0.7359;1.5823;
303.9000;0.7318;1.5683;
304.2000;0.7318;1.5706;
304.5000;0.7342;1.5706;
304.8000;0.7318;1.5636;
305.1000;0.7342;1.5659;
305.4000;0.7448;1.5800;
305.7000;0.7350;1.5542;
306.0000;0.7416;1.5730;
306.3000;0.7342;1.5589;
306.6000;0.7359;1.5683;
306.9000;0.7342;1.5636;
307.2000;0.7334;1.5589;
307.5000;0.7342;1.5636;
307.8000;0.7326;1.5613;
308.1000;0.7334;1.5776;
308.4000;0.7302;1.5683;
308.7000;0.7302;1.5589;
309.0000;0.7326;1.5659;
309.3000;0.7334;1.5823;
309.6000;0.7326;1.5847;
309.9000;0.7318;1.5800;
310.2000;0.7310;1.5800;
310.5000;0.7342;1.5800;
310.8000;0.7326;1.5683;
311.1000;0.7318;1.5706;
311.4000;0.7318;1.5730;
311.7000;0.7310;1.5800;
312.0000;0.7310;1.5776;
312.3000;0.7342;1.5870;
312.6000;0.7326;1.5800;
312.9000;0.7318;1.5893;
313.2000;0.7326;1.5893;
313.5000;0.7334;1.5870;
313.8000;0.7318;1.5800;
314.1000;0.7318;1.5730;
314.4000;0.7342;1.5847;
314.7000;0.7350;1.5847;
315.0000;0.7326;1.5776;
315.3000;0.7326;1.5753;
315.6000;0.7318;1.5776;
315.9000;0.7334;1.5893;
316.2000;0.7326;1.5940;
316.5000;0.7302;1.5893;
316.8000;0.7310;1.6010;
317.1000;0.7326;1.5964;
317.4000;0.7318;1.5870;
317.7000;0.7302;1.5964;
318.0000;0.7334;1.6057;
318.3000;0.7334;1.6057;
318.6000;0.7359;1.6104;
318.9000;0.7318;1.6034;
319.2000;0.7318;1.5940;
319.5000;0.7334;1.5964;
319.8000;0.7342;1.5917;
320.1000;0.7326;1.5847;
320.4000;0.7318;1.5917;
320.7000;0.7326;1.5940;
321.0000;0.7342;1.6010;
321.3000;0.7334;1.6081;
321.6000;0.7318;1.6010;
321.9000;0.7342;1.5987;
322.2000;0.7350;1.5964;
322.5000;0.7334;1.5940;
322.8000;0.7326;1.5893;
323.1000;0.7318;1.5893;
323.4000;0.7326;1.5940;
323.7000;0.7334;1.5964;
324.0000;0.7334;1.5917;
324.3000;0.7318;1.5823;
324.6000;0.7334;1.5823;
324.9000;0.7326;1.5753;
325.2000;0.7334;1.5683;
325.5000;0.7334;1.5753;
325.8000;0.7326;1.5776;
326.1000;0.7334;1.5753;
326.4000;0.7334;1.5730;
326.7000;0.7310;1.5683;
327.0000;0.7326;1.5800;
327.3000;0.7326;1.5823;
327.6000;0.7318;1.5893;
327.9000;0.7310;1.5847;
328.2000;0.7310;1.5893;
328.5000;0.7285;1.5893;
328.8000;0.7293;1.5917;
329.1000;0.7277;1.5847;
329.4000;0.7318;1.5893;
329.7000;0.7318;1.5800;
330.0000;0.7342;1.5893;
330.3000;0.7261;1.5659;
330.6000;0.7318;1.5964;
330.9000;0.7334;1.6127;
331.2000;0.7318;1.6127;
331.5000;0.7302;1.6034;
331.8000;0.7310;1.5964;
332.1000;0.7310;1.5940;
332.4000;0.7375;1.6104;
332.7000;0.7269;1.5870;
333.0000;0.7302;1.5917;
333.3000;0.7310;1.5917;
333.6000;0.7310;1.5893;
333.9000;0.7310;1.5964;
334.2000;0.7204;1.5659;
334.5000;0.7310;1.5823;
334.8000;0.7310;1.5730;
335.1000;0.7326;1.5800;
335.4000;0.7293;1.5730;
335.7000;0.7318;1.5776;
336.0000;0.7302;1.5870;
336.3000;0.7310;1.5893;
336.6000;0.7310;1.5776;
336.9000;0.7310;1.5870;
337.2000;0.7326;1.5917;
337.5000;0.7326;1.5870;
337.8000;0.7261;1.5683;
338.1000;0.7293;1.5776;
338.4000;0.7326;1.5847;
338.7000;0.7293;1.5706;
339.0000;0.7269;1.5636;
339.3000;0.7310;1.5776;
339.6000;0.7302;1.5800;
339.9000;0.7302;1.5776;
340.2000;0.7310;1.5800;
340.5000;0.7310;1.5870;
340.8000;0.7318;1.5823;
341.1000;0.7334;1.5893;
341.4000;0.7302;1.5847;
341.7000;0.7310;1.5893;
342.0000;0.7318;1.5917;
342.3000;0.7383;1.6151;
342.6000;0.7310;1.6010;
342.9000;0.7326;1.5987;
343.2000;0.7293;1.5917;
343.5000;0.7277;1.5893;
343.8000;0.7302;1.5893;
344.1000;0.7310;1.5917;
344.4000;0.7212;1.5659;
344.7000;0.7302;1.5893;
345.0000;0.7277;1.5683;
345.3000;0.7302;1.5706;
345.6000;0.7302;1.5683;
345.9000;0.7334;1.5613;
346.2000;0.7302;1.5566;
346.5000;0.7359;1.5706;
346.8000;0.7334;1.5706;
347.1000;0.7310;1.5659;
347.4000;0.7302;1.5636;
347.7000;0.7302;1.5659;
348.0000;0.7212;1.5449;
348.3000;0.7310;1.5706;
348.6000;0.7302;1.5683;
348.9000;0.7416;1.5987;
349.2000;0.7310;1.5753;
349.5000;0.7293;1.5730;
349.8000;0.7277;1.5659;
350.1000;0.7326;1.5776;
350.4000;0.7310;1.5636;
350.7000;0.7326;1.5659;
351.0000;0.7228;1.5402;
351.3000;0.7310;1.5659;
351.6000;0.7310;1.5683;
351.9000;0.7285;1.5613;
352.2000;0.7302;1.5753;
352.5000;0.7326;1.5753;
352.8000;0.7285;1.5542;
353.1000;0.7293;1.5472;
353.4000;0.7302;1.5496;
353.7000;0.7293;1.5683;
354.0000;0.7310;1.5636;
354.3000;0.7359;1.5613;
354.6000;0.7277;1.5425;
354.9000;0.7310;1.5496;
355.2000;0.7302;1.5542;
355.5000;0.7277;1.5472;
355.8000;0.7293;1.5496;
356.1000;0.7302;1.5566;
356.4000;0.7326;1.5613;
356.7000;0.7318;1.5636;
357.0000;0.7310;1.5659;
357.3000;0.7318;1.5753;
357.6000;0.7310;1.5730;
357.9000;0.7318;1.5776;
358.2000;0.7302;1.5753;
358.5000;0.7293;1.5730;
358.8000;0.7212;1.5449;
359.1000;0.7261;1.5613;
359.4000;0.7318;1.5706;
359.7000;0.7318;1.5847;
360.0000;0.7310;1.5800;
360.3000;0.7302;1.5800;
360.6000;0.7293;1.5706;
360.9000;0.7310;1.5753;
361.2000;0.7293;1.5683;
361.5000;0.7293;1.5706;
361.8000;0.7253;1.5589;
362.1000;0.7293;1.5613;
362.4000;0.7310;1.5683;
362.7000;0.7302;1.5683;
363.0000;0.7334;1.5776;
363.3000;0.7285;1.5589;
363.6000;0.7277;1.5613;
363.9000;0.7310;1.5753;
364.2000;0.7285;1.5776;
364.5000;0.7285;1.5776;
364.8000;0.7318;1.5800;
365.1000;0.7220;1.5589;
365.4000;0.7253;1.5800;
365.7000;0.7293;1.5870;
366.0000;0.7293;1.5847;
366.3000;0.7310;1.5823;
366.6000;0.7326;1.5753;
366.9000;0.7310;1.5683;
367.2000;0.7334;1.5683;
367.5000;0.7285;1.5683;
367.8000;0.7277;1.5683;
368.1000;0.7318;1.5730;
368.4000;0.7326;1.5706;
368.7000;0.7375;1.5776;
369.0000;0.7293;1.5613;
369.3000;0.7302;1.5683;
369.6000;0.7407;1.5987;
369.9000;0.7269;1.5636;
370.2000;0.7310;1.5636;
370.5000;0.7253;1.5496;
370.8000;0.7269;1.5613;
371.1000;0.7293;1.5683;
371.4000;0.7277;1.5636;
371.7000;0.7302;1.5519;
372.0000;0.7293;1.5589;
372.3000;0.7302;1.5542;
372.6000;0.7318;1.5636;
372.9000;0.7285;1.5566;
373.2000;0.7302;1.5659;
373.5000;0.7293;1.5683;
373.8000;0.7302;1.5776;
374.1000;0.7302;1.5776;
374.4000;0.7285;1.5776;
374.7000;0.7407;1.6174;
375.0000;0.7293;1.5870;
375.3000;0.7285;1.5800;
375.6000;0.7261;1.5800;
375.9000;0.7253;1.5776;
376.2000;0.7285;1.5823;
376.5000;0.7277;1.5870;
376.8000;0.7310;1.5893;
377.1000;0.7302;1.5917;
377.4000;0.7302;1.5893;
377.7000;0.7285;1.5823;
378.0000;0.7285;1.5800;
378.3000;0.7277;1.5823;
378.6000;0.7269;1.5753;
378.9000;0.7277;1.5730;
379.2000;0.7293;1.5659;
379.5000;0.7285;1.5683;
379.8000;0.7293;1.5636;
380.1000;0.7277;1.5683;
380.4000;0.7285;1.5753;
380.7000;0.7277;1.5683;
381.0000;0.7318;1.5683;
381.3000;0.7293;1.5613;
381.6000;0.7285;1.5519;
381.9000;0.7302;1.5472;
382.2000;0.7293;1.5589;
382.5000;0.7302;1.5706;
382.8000;0.7293;1.5636;
383.1000;0.7302;1.5683;
383.4000;0.7302;1.5659;
383.7000;0.7293;1.5683;
384.0000;0.7302;1.5706;
384.3000;0.7293;1.5659;
384.6000;0.7302;1.5706;
384.9000;0.7269;1.5636;
385.2000;0.7302;1.5776;
385.5000;0.7261;1.5800;
385.8000;0.7399;1.6127;
386.1000;0.7293;1.5823;
386.4000;0.7293;1.5893;
386.7000;0.7277;1.5917;
387.0000;0.7285;1.5940;
387.3000;0.7277;1.5964;
387.6000;0.7285;1.5964;
387.9000;0.7285;1.5870;
388.2000;0.7285;1.5893;
388.5000;0.7310;1.5917;
388.8000;0.7334;1.5940;
389.1000;0.7269;1.5917;
389.4000;0.7302;1.5964;
389.7000;0.7285;1.5964;
390.0000;0.7277;1.5847;
390.3000;0.7326;1.5964;
390.6000;0.7318;1.6010;
390.9000;0.7285;1.5964;
391.2000;0.7261;1.5893;
391.5000;0.7334;1.6081;
391.8000;0.7293;1.5940;
392.1000;0.7293;1.5940;
392.4000;0.7334;1.5987;
392.7000;0.7285;1.5940;
393.0000;0.7277;1.5987;
393.3000;0.7236;1.5917;
393.6000;0.7293;1.5964;
393.9000;0.7293;1.5870;
394.2000;0.7269;1.5800;
394.5000;0.7277;1.5800;
394.8000;0.7293;1.5753;
395.1000;0.7269;1.5753;
395.4000;0.7269;1.5706;
395.7000;0.7253;1.5823;
396.0000;0.7261;1.5870;
396.3000;0.7277;1.5847;
396.6000;0.7310;1.5847;
396.9000;0.7277;1.5800;
397.2000;0.7293;1.5823;
397.5000;0.7302;1.5870;
397.8000;0.7285;1.5800;
398.1000;0.7245;1.5730;
398.4000;0.7285;1.5870;
398.7000;0.7293;1.5964;
399.0000;0.7253;1.6010;
399.3000;0.7277;1.6104;
399.6000;0.7277;1.6057;
399.9000;0.7277;1.6010;
400.2000;0.7293;1.5987;
400.5000;0.7293;1.5940;
400.8000;0.7277;1.5917;
401.1000;0.7293;1.6034;
401.4000;0.7236;1.5893;
401.7000;0.7285;1.6034;
402.0000;0.7293;1.6057;
402.3000;0.7293;1.6104;
402.6000;0.7302;1.6127;
402.9000;0.7269;1.6057;
403.2000;0.7277;1.6034;
403.5000;0.7285;1.6010;
403.8000;0.7310;1.6010;
404.1000;0.7285;1.5940;
404.4000;0.7285;1.5940;
404.7000;0.7253;1.5847;
405.0000;0.7277;1.5870;
405.3000;0.7285;1.5847;
405.6000;0.7293;1.5893;
405.9000;0.7285;1.5776;
406.2000;0.7277;1.5776;
406.5000;0.7302;1.5800;
406.8000;0.7285;1.5776;
407.1000;0.7269;1.5706;
407.4000;0.7285;1.5776;
407.7000;0.7269;1.5917;
408.0000;0.7285;1.6034;
408.3000;0.7285;1.6057;
408.6000;0.7285;1.6104;
408.9000;0.7293;1.6081;
409.2000;0.7334;1.6104;
409.5000;0.7293;1.5870;
409.8000;0.7293;1.5870;
410.1000;0.7293;1.5940;
410.4000;0.7293;1.6010;
410.7000;0.7261;1.5917;
411.0000;0.7269;1.5940;
411.3000;0.7236;1.5940;
411.6000;0.7293;1.6081;
411.9000;0.7277;1.6081;
412.2000;0.7318;1.6081;
412.5000;0.7277;1.5987;
412.8000;0.7269;1.5940;
413.1000;0.7261;1.5917;
413.4000;0.7269;1.5917;
413.7000;0.7269;1.5964;
414.0000;0.7277;1.6057;
414.3000;0.7293;1.6010;
414.6000;0.7277;1.5987;
414.9000;0.7285;1.6010;
415.2000;0.7277;1.5940;
415.5000;0.7318;1.6034;
415.8000;0.7269;1.5823;
416.1000;0.7277;1.5800;
416.4000;0.7261;1.5753;
416.7000;0.7285;1.5823;
417.0000;0.7293;1.5847;
417.3000;0.7342;1.5893;
417.6000;0.7293;1.5706;
417.9000;0.7277;1.5613;
418.2000;0.7285;1.5659;
418.5000;0.7196;1.5425;
418.8000;0.7277;1.5683;
419.1000;0.7277;1.5730;
419.4000;0.7285;1.5776;
419.7000;0.7212;1.5730;
420.0000;0.7293;1.5847;
420.3000;0.7310;1.5940;
420.6000;0.7302;1.5893;
420.9000;0.7277;1.5847;
421.2000;0.7342;1.6057;
421.5000;0.7310;1.5870;
421.8000;0.7342;1.5940;
422.1000;0.7269;1.5847;
422.4000;0.7302;1.5776;
422.7000;0.7293;1.5870;
423.0000;0.7277;1.5893;
423.3000;0.7212;1.5776;
423.6000;0.7261;1.5823;
423.9000;0.7277;1.5917;
424.2000;0.7228;1.5870;
424.5000;0.7277;1.5987;
424.8000;0.7245;1.5940;
425.1000;0.7261;1.6034;
425.4000;0.7310;1.6174;
425.7000;0.7261;1.6104;
426.0000;0.7253;1.6034;
426.3000;0.7285;1.6104;
426.6000;0.7269;1.6081;
426.9000;0.7277;1.6057;
427.2000;0.7269;1.6034;
427.5000;0.7285;1.6174;
427.8000;0.7277;1.6198;
428.1000;0.7302;1.6151;
428.4000;0.7277;1.6081;
428.7000;0.7171;1.5823;
429.0000;0.7269;1.6081;
429.3000;0.7236;1.6010;
429.6000;0.7236;1.5917;
429.9000;0.7212;1.5776;
430.2000;0.7261;1.5940;
430.5000;0.7277;1.5940;
430.8000;0.7285;1.5847;
431.1000;0.7269;1.5800;
431.4000;0.7253;1.5776;
431.7000;0.7269;1.5753;
432.0000;0.7269;1.5800;
432.3000;0.7261;1.5847;
432.6000;0.7253;1.5823;
432.9000;0.7261;1.5823;
433.2000;0.7253;1.5870;
433.5000;0.7245;1.5823;
433.8000;0.7261;1.5987;
434.1000;0.7261;1.6057;
434.4000;0.7277;1.6127;
434.7000;0.7277;1.6127;
435.0000;0.7245;1.6034;
435.3000;0.7261;1.6104;
435.6000;0.7253;1.6034;
435.9000;0.7261;1.6081;
436.2000;0.7261;1.6057;
436.5000;0.7236;1.5964;
436.8000;0.7253;1.6010;
437.1000;0.7277;1.6104;
437.4000;0.7253;1.5964;
437.7000;0.7269;1.6010;
438.0000;0.7253;1.6034;
438.3000;0.7269;1.6081;
438.6000;0.7261;1.6081;
438.9000;0.7269;1.6127;
439.2000;0.7261;1.6057;
439.5000;0.7261;1.6081;
439.8000;0.7228;1.5940;
440.1000;0.7245;1.5823;
440.4000;0.7236;1.5893;
440.7000;0.7269;1.5964;
441.0000;0.7236;1.5870;
441.3000;0.7245;1.5987;
441.6000;0.7245;1.5964;
441.9000;0.7261;1.5987;
442.2000;0.7261;1.5987;
442.5000;0.7269;1.6081;
442.8000;0.7269;1.6057;
443.1000;0.7285;1.6081;
443.4000;0.7277;1.6081;
443.7000;0.7261;1.6010;
444.0000;0.7204;1.5847;
444.3000;0.7277;1.6081;
444.6000;0.7261;1.6034;
444.9000;0.7196;1.5893;
445.2000;0.7277;1.6127;
445.5000;0.7367;1.6291;
445.8000;0.7318;1.6081;
446.1000;0.7261;1.5987;
446.4000;0.7228;1.5800;
446.7000;0.7277;1.5847;
447.0000;0.7277;1.5847;
447.3000;0.7318;1.5893;
447.6000;0.7277;1.5823;
447.9000;0.7245;1.5800;
448.2000;0.7269;1.5917;
448.5000;0.7253;1.5987;
448.8000;0.7326;1.6151;
449.1000;0.7285;1.6127;
449.4000;0.7253;1.6081;
449.7000;0.7269;1.6127;
450.0000;0.7269;1.6127;
450.3000;0.7302;1.6174;
450.6000;0.7261;1.6010;
450.9000;0.7269;1.5964;
451.2000;0.7228;1.5800;
451.5000;0.7269;1.5847;
451.8000;0.7253;1.5800;
452.1000;0.7245;1.5847;
452.4000;0.7261;1.5917;
452.7000;0.7220;1.5940;
453.0000;0.7220;1.5940;
453.3000;0.7277;1.6174;
453.6000;0.7277;1.6174;
453.9000;0.7228;1.6057;
454.2000;0.7261;1.6151;
454.5000;0.7269;1.6081;
454.8000;0.7285;1.6104;
455.1000;0.7310;1.6151;
455.4000;0.7277;1.6010;
455.7000;0.7253;1.5893;
456.0000;0.7269;1.5964;
456.3000;0.7269;1.5917;
456.6000;0.7269;1.5917;
456.9000;0.7253;1.5893;
457.2000;0.7261;1.5917;
457.5000;0.7285;1.6010;
457.8000;0.7269;1.5987;
458.1000;0.7253;1.5987;
458.4000;0.7334;1.6221;
458.7000;0.7269;1.6034;
459.0000;0.7245;1.5987;
459.3000;0.7269;1.6057;
459.6000;0.7261;1.5964;
459.9000;0.7285;1.5893;
460.2000;0.7277;1.5870;
460.5000;0.7318;1.5940;
460.8000;0.7212;1.5683;
461.1000;0.7261;1.5870;
461.4000;0.7261;1.5917;
461.7000;0.7245;1.5917;
462.0000;0.7261;1.5893;
462.3000;0.7261;1.5964;
462.6000;0.7261;1.6104;
462.9000;0.7277;1.6057;
463.2000;0.7245;1.5940;
463.5000;0.7367;1.6338;
463.8000;0.7253;1.6104;
464.1000;0.7326;1.6291;
464.4000;0.7220;1.6081;
464.7000;0.7310;1.6315;
465.0000;0.7261;1.6151;
465.3000;0.7261;1.6198;
465.6000;0.7236;1.6104;
465.9000;0.7245;1.6127;
466.2000;0.7293;1.6174;
466.5000;0.7269;1.6221;
466.8000;0.7220;1.6034;
467.1000;0.7236;1.6104;
467.4000;0.7220;1.6127;
467.7000;0.7228;1.6151;
468.0000;0.7253;1.6104;
468.3000;0.7253;1.6081;
468.6000;0.7253;1.6127;
468.9000;0.7326;1.6268;
469.2000;0.7293;1.6315;
469.5000;0.7269;1.6245;
469.8000;0.7253;1.6174;
470.1000;0.7253;1.6174;
470.4000;0.7269;1.6174;
470.7000;0.7253;1.6104;
471.0000;0.7261;1.6151;
471.3000;0.7261;1.6174;
471.6000;0.7245;1.6127;
471.9000;0.7245;1.6057;
472.2000;0.7261;1.6104;
472.5000;0.7245;1.6127;
472.8000;0.7261;1.6174;
473.1000;0.7261;1.6198;
473.4000;0.7261;1.6221;
473.7000;0.7261;1.6268;
474.0000;0.7220;1.6151;
474.3000;0.7261;1.6245;
474.6000;0.7204;1.6127;
474.9000;0.7253;1.6104;
475.2000;0.7236;1.6081;
475.5000;0.7269;1.6104;
475.8000;0.7269;1.6104;
476.1000;0.7269;1.6081;
476.4000;0.7269;1.6104;
476.7000;0.7253;1.6127;
477.0000;0.7245;1.6127;
477.3000;0.7220;1.6127;
477.6000;0.7228;1.6151;
477.9000;0.7253;1.6151;
478.2000;0.7285;1.6198;
478.5000;0.7253;1.6034;
478.8000;0.7245;1.5964;
479.1000;0.7261;1.5964;
479.4000;0.7318;1.6127;
479.7000;0.7236;1.5964;
480.0000;0.7245;1.5940;
480.3000;0.7269;1.5987;
480.6000;0.7261;1.6057;
480.9000;0.7359;1.6268;
481.2000;0.7253;1.6034;
481.5000;0.7285;1.6127;
481.8000;0.7269;1.6104;
482.1000;0.7236;1.6127;
482.4000;0.7220;1.5987;
482.7000;0.7253;1.6081;
483.0000;0.7261;1.6081;
483.3000;0.7293;1.6127;
483.6000;0.7245;1.5987;
483.9000;0.7236;1.5917;
484.2000;0.7212;1.5893;
484.5000;0.7285;1.6104;
484.8000;0.7261;1.6057;
485.1000;0.7245;1.6034;
485.4000;0.7277;1.6081;
485.7000;0.7245;1.6057;
486.0000;0.7253;1.6127;
486.3000;0.7261;1.6151;
486.6000;0.7236;1.6034;
486.9000;0.7285;1.6127;
487.2000;0.7245;1.6081;
487.5000;0.7220;1.6034;
487.8000;0.7236;1.6127;
488.1000;0.7261;1.6127;
488.4000;0.7261;1.6104;
488.7000;0.7228;1.6057;
489.0000;0.7245;1.6104;
489.3000;0.7261;1.6151;
489.6000;0.7236;1.6104;
489.9000;0.7236;1.6104;
490.2000;0.7245;1.6221;
490.5000;0.7253;1.6268;
490.8000;0.7236;1.6198;
491.1000;0.7188;1.6104;
491.4000;0.7236;1.6174;
491.7000;0.7261;1.6198;
492.0000;0.7261;1.6245;
492.3000;0.7228;1.6127;
492.6000;0.7228;1.6151;
492.9000;0.7236;1.6174;
493.2000;0.7236;1.6081;
493.5000;0.7196;1.6104;
493.8000;0.7261;1.6221;
494.1000;0.7220;1.6127;
494.4000;0.7228;1.6221;
494.7000;0.7236;1.6245;
495.0000;0.7236;1.6198;
495.3000;0.7236;1.6151;
495.6000;0.7261;1.6221;
495.9000;0.7261;1.6245;
496.2000;0.7236;1.6245;
496.5000;0.7236;1.6198;
496.8000;0.7236;1.6198;
497.1000;0.7228;1.6174;
497.4000;0.7245;1.6174;
497.7000;0.7253;1.6174;
498.0000;0.7236;1.6127;
498.3000;0.7253;1.6245;
498.6000;0.7228;1.6151;
498.9000;0.7204;1.6081;
499.2000;0.7236;1.6198;
499.5000;0.7253;1.6198;
499.8000;0.7261;1.6174;
500.1000;0.7269;1.6198;
500.4000;0.7228;1.6104;
500.7000;0.7261;1.6151;
501.0000;0.7261;1.6127;
501.3000;0.7277;1.6151;
501.6000;0.7228;1.6057;
501.9000;0.7350;1.6245;
502.2000;0.7277;1.5987;
502.5000;0.7253;1.5964;
502.8000;0.7236;1.5870;
503.1000;0.7236;1.5940;
503.4000;0.7212;1.5917;
503.7000;0.7236;1.5940;
504.0000;0.7253;1.5893;
504.3000;0.7245;1.5917;
504.6000;0.7261;1.5964;
504.9000;0.7253;1.5940;
505.2000;0.7261;1.5847;
505.5000;0.7245;1.5823;
505.8000;0.7253;1.5823;
506.1000;0.7261;1.5730;
506.4000;0.7245;1.5776;
506.7000;0.7220;1.5730;
507.0000;0.7236;1.5847;
507.3000;0.7188;1.5730;
507.6000;0.7261;1.5776;
507.9000;0.7269;1.5753;
508.2000;0.7310;1.5870;
508.5000;0.7253;1.5659;
508.8000;0.7228;1.5589;
509.1000;0.7188;1.5496;
509.4000;0.7236;1.5753;
509.7000;0.7269;1.5964;
510.0000;0.7253;1.5940;
510.3000;0.7228;1.5823;
510.6000;0.7261;1.5847;
510.9000;0.7261;1.5847;
511.2000;0.7261;1.5917;
511.5000;0.7277;1.6057;
511.8000;0.7245;1.5940;
512.1000;0.7236;1.5940;
512.4000;0.7245;1.5940;
512.7000;0.7236;1.5987;
513.0000;0.7228;1.6057;
513.3000;0.7228;1.6034;
513.6000;0.7228;1.5964;
513.9000;0.7220;1.5940;
514.2000;0.7228;1.5823;
514.5000;0.7228;1.5847;
514.8000;0.7228;1.5870;
515.1000;0.7236;1.5893;
515.4000;0.7236;1.5847;
515.7000;0.7212;1.5800;
516.0000;0.7261;1.5893;
516.3000;0.7245;1.6010;
516.6000;0.7253;1.6034;
516.9000;0.7236;1.6010;
517.2000;0.7245;1.6057;
517.5000;0.7245;1.6081;
517.8000;0.7285;1.6174;
518.1000;0.7236;1.6081;
518.4000;0.7236;1.6010;
518.7000;0.7196;1.5964;
519.0000;0.7212;1.5917;
519.3000;0.7228;1.5940;
519.6000;0.7334;1.6174;
519.9000;0.7236;1.6010;
520.2000;0.7220;1.6034;
520.5000;0.7245;1.6104;
520.8000;0.7245;1.6081;
521.1000;0.7236;1.6127;
521.4000;0.7245;1.6174;
521.7000;0.7245;1.6174;
522.0000;0.7228;1.6151;
522.3000;0.7253;1.6151;
522.6000;0.7253;1.6174;
522.9000;0.7245;1.6198;
523.2000;0.7269;1.6338;
523.5000;0.7245;1.6198;
523.8000;0.7236;1.6127;
524.1000;0.7277;1.6245;
524.4000;0.7236;1.6174;
524.7000;0.7261;1.6198;
525.0000;0.7212;1.6104;
525.3000;0.7245;1.6127;
525.6000;0.7253;1.6198;
525.9000;0.7261;1.6151;
526.2000;0.7236;1.6081;
526.5000;0.7253;1.6104;
526.8000;0.7228;1.6104;
527.1000;0.7220;1.6127;
527.4000;0.7245;1.6221;
527.7000;0.7245;1.6268;
528.0000;0.7228;1.6268;
528.3000;0.7220;1.6268;
528.6000;0.7228;1.6198;
528.9000;0.7212;1.6151;
529.2000;0.7228;1.6245;
529.5000;0.7179;1.6174;
529.8000;0.7212;1.6198;
530.1000;0.7228;1.6221;
530.4000;0.7236;1.6268;
530.7000;0.7253;1.6338;
531.0000;0.7236;1.6291;
531.3000;0.7245;1.6362;
531.6000;0.7220;1.6291;
531.9000;0.7253;1.6268;
532.2000;0.7236;1.6174;
532.5000;0.7269;1.6315;
532.8000;0.7236;1.6268;
533.1000;0.7236;1.6362;
533.4000;0.7220;1.6315;
533.7000;0.7236;1.6315;
534.0000;0.7228;1.6268;
534.3000;0.7228;1.6221;
534.6000;0.7220;1.6198;
534.9000;0.7220;1.6127;
535.2000;0.7228;1.6221;
535.5000;0.7261;1.6268;
535.8000;0.7253;1.6221;
536.1000;0.7228;1.6198;
536.4000;0.7236;1.6291;
536.7000;0.7245;1.6291;
537.0000;0.7277;1.6338;
537.3000;0.7228;1.6174;
537.6000;0.7204;1.6057;
537.9000;0.7245;1.6174;
538.2000;0.7236;1.6198;
538.5000;0.7245;1.6245;
538.8000;0.7204;1.6174;
539.1000;0.7269;1.6291;
539.4000;0.7253;1.6291;
539.7000;0.7253;1.6221;
540.0000;0.7228;1.6221;
540.3000;0.7269;1.6362;
540.6000;0.7212;1.6174;
540.9000;0.7236;1.6291;
541.2000;0.7245;1.6338;
541.5000;0.7236;1.6315;
541.8000;0.7261;1.6198;
542.1000;0.7131;1.5964;
542.4000;0.7245;1.6315;
542.7000;0.7245;1.6174;
543.0000;0.7253;1.6198;
543.3000;0.7236;1.6081;
543.6000;0.7228;1.6034;
543.9000;0.7228;1.6081;
544.2000;0.7228;1.6151;
544.5000;0.7236;1.6174;
544.8000;0.7171;1.5964;
545.1000;0.7228;1.6104;
545.4000;0.7236;1.6174;
545.7000;0.7212;1.6198;
546.0000;0.7228;1.6338;
546.3000;0.7196;1.6315;
546.6000;0.7220;1.6315;
546.9000;0.7228;1.6385;
547.2000;0.7236;1.6362;
547.5000;0.7228;1.6268;
547.8000;0.7253;1.6268;
548.1000;0.7228;1.6127;
548.4000;0.7236;1.6081;
548.7000;0.7245;1.6104;
549.0000;0.7212;1.6104;
549.3000;0.7228;1.6104;
549.6000;0.7212;1.5987;
549.9000;0.7245;1.6034;
550.2000;0.7228;1.6034;
550.5000;0.7253;1.5987;
550.8000;0.7245;1.6034;
551.1000;0.7179;1.5964;
551.4000;0.7228;1.6127;
551.7000;0.7236;1.6198;
552.0000;0.7236;1.6268;
552.3000;0.7253;1.6315;
552.6000;0.7236;1.6268;
552.9000;0.7204;1.6245;
553.2000;0.7196;1.6127;
553.5000;0.7245;1.6198;
553.8000;0.7179;1.6034;
554.1000;0.7212;1.6198;
554.4000;0.7228;1.6362;
554.7000;0.7228;1.6362;
555.0000;0.7220;1.6432;
555.3000;0.7212;1.6385;
555.6000;0.7236;1.6432;
555.9000;0.7228;1.6408;
556.2000;0.7212;1.6432;
556.5000;0.7212;1.6479;
556.8000;0.7212;1.6408;
557.1000;0.7236;1.6385;
557.4000;0.7277;1.6549;
557.7000;0.7212;1.6455;
558.0000;0.7245;1.6525;
558.3000;0.7236;1.6362;
558.6000;0.7204;1.6245;
558.9000;0.7228;1.6221;
559.2000;0.7236;1.6245;
559.5000;0.7277;1.6315;
559.8000;0.7212;1.6268;
560.1000;0.7228;1.6174;
560.4000;0.7228;1.6151;
560.7000;0.7245;1.6151;
561.0000;0.7277;1.6198;
561.3000;0.7220;1.6081;
561.6000;0.7220;1.6104;
561.9000;0.7253;1.6198;
562.2000;0.7277;1.6315;
562.5000;0.7236;1.6268;
562.8000;0.7228;1.6221;
563.1000;0.7261;1.6245;
563.4000;0.7236;1.6198;
563.7000;0.7236;1.6127;
564.0000;0.7245;1.6127;
564.3000;0.7228;1.6034;
564.6000;0.7228;1.6010;
564.9000;0.7245;1.6057;
565.2000;0.7236;1.6057;
565.5000;0.7228;1.6057;
565.8000;0.7253;1.6198;
566.1000;0.7204;1.6081;
566.4000;0.7188;1.6034;
566.7000;0.7212;1.6034;
567.0000;0.7220;1.6104;
567.3000;0.7236;1.6198;
567.6000;0.7228;1.6151;
567.9000;0.7204;1.6127;
568.2000;0.7220;1.6151;
568.5000;0.7236;1.6268;
568.8000;0.7220;1.6221;
569.1000;0.7293;1.6362;
569.4000;0.7228;1.6081;
569.7000;0.7196;1.6151;
570.0000;0.7261;1.6151;
570.3000;0.7236;1.6151;
570.6000;0.7228;1.6104;
570.9000;0.7236;1.6174;
571.2000;0.7277;1.6385;
571.5000;0.7220;1.6291;
571.8000;0.7220;1.6362;
572.1000;0.7212;1.6455;
572.4000;0.7245;1.6572;
572.7000;0.7236;1.6525;
573.0000;0.7212;1.6432;
573.3000;0.7196;1.6291;
573.6000;0.7269;1.6362;
573.9000;0.7228;1.6221;
574.2000;0.7220;1.6174;
574.5000;0.7220;1.6104;
574.8000;0.7212;1.6104;
575.1000;0.7228;1.6174;
575.4000;0.7342;1.6432;
575.7000;0.7269;1.6245;
576.0000;0.7236;1.6104;
576.3000;0.7269;1.6151;
576.6000;0.7228;1.6151;
576.9000;0.7188;1.6081;
577.2000;0.7228;1.6174;
577.5000;0.7236;1.6268;
577.8000;0.7236;1.6268;
578.1000;0.7220;1.6221;
578.4000;0.7236;1.6221;
578.7000;0.7228;1.6245;
579.0000;0.7245;1.6362;
579.3000;0.7236;1.6245;
579.6000;0.7220;1.6291;
579.9000;0.7220;1.6221;
580.2000;0.7212;1.6174;
580.5000;0.7220;1.6057;
580.8000;0.7220;1.6034;
581.1000;0.7293;1.6245;
581.4000;0.7228;1.5987;
581.7000;0.7228;1.5987;
582.0000;0.7228;1.6057;
582.3000;0.7212;1.6057;
582.6000;0.7236;1.6174;
582.9000;0.7228;1.6151;
583.2000;0.7204;1.6104;
583.5000;0.7204;1.6127;
583.8000;0.7220;1.6198;
584.1000;0.7228;1.6338;
584.4000;0.7220;1.6291;
584.7000;0.7212;1.6338;
585.0000;0.7204;1.6315;
585.3000;0.7228;1.6362;
585.6000;0.7163;1.6127;
585.9000;0.7228;1.6291;
586.2000;0.7220;1.6268;
586.5000;0.7220;1.6291;
586.8000;0.7220;1.6268;
587.1000;0.7220;1.6245;
587.4000;0.7228;1.6268;
587.7000;0.7212;1.6315;
588.0000;0.7245;1.6455;
588.3000;0.7220;1.6385;
588.6000;0.7236;1.6362;
588.9000;0.7220;1.6338;
589.2000;0.7204;1.6245;
589.5000;0.7220;1.6151;
589.8000;0.7228;1.6221;
590.1000;0.7236;1.6245;
590.4000;0.7228;1.6245;
590.7000;0.7204;1.6174;
591.0000;0.7212;1.6174;
591.3000;0.7220;1.6245;
591.6000;0.7204;1.6245;
591.9000;0.7261;1.6338;
592.2000;0.7261;1.6291;
592.5000;0.7179;1.6127;
592.8000;0.7342;1.6549;
593.1000;0.7220;1.6268;
593.4000;0.7171;1.6151;
593.7000;0.7220;1.6221;
594.0000;0.7228;1.6151;
594.3000;0.7196;1.6081;
594.6000;0.7220;1.6245;
594.9000;0.7212;1.6198;
595.2000;0.7228;1.6198;
595.5000;0.7245;1.6198;
595.8000;0.7236;1.6221;
596.1000;0.7253;1.6408;
596.4000;0.7253;1.6385;
596.7000;0.7220;1.6245;
597.0000;0.7212;1.6174;
597.3000;0.7293;1.6385;
597.6000;0.7236;1.6268;
597.9000;0.7228;1.6291;
598.2000;0.7293;1.6479;
598.5000;0.7228;1.6385;
598.8000;0.7261;1.6479;
599.1000;0.7188;1.6291;
599.4000;0.7196;1.6315;
599.7000;0.7220;1.6408;
600.0000;0.7147;1.6127;
600.3000;0.7228;1.6127;
600.6000;0.7163;1.5940;
600.9000;0.7114;1.5893;
601.2000;0.6952;1.5589;
601.5000;0.6862;1.5425;
601.8000;0.6740;1.5051;
602.1000;0.6642;1.4887;
602.4000;0.6536;1.4629;
602.7000;0.6447;1.4466;
603.0000;0.6357;1.4255;
603.3000;0.6300;1.4114;
603.6000;0.6203;1.3951;
603.9000;0.6138;1.3880;
604.2000;0.6081;1.3810;
604.5000;0.5983;1.3670;
604.8000;0.5958;1.3740;
605.1000;0.5926;1.3670;
605.4000;0.5877;1.3553;
605.7000;0.5836;1.3482;
606.0000;0.5812;1.3389;
606.3000;0.5722;1.3248;
606.6000;0.5698;1.3178;
606.9000;0.5649;1.3061;
607.2000;0.5641;1.3108;
607.5000;0.5649;1.3085;
607.8000;0.5551;1.2897;
608.1000;0.5543;1.3014;
608.4000;0.5527;1.2944;
608.7000;0.5470;1.2827;
609.0000;0.5592;1.3178;
609.3000;0.5446;1.2827;
609.6000;0.5421;1.2804;
609.9000;0.5405;1.2710;
610.2000;0.5397;1.2757;
610.5000;0.5364;1.2757;
610.8000;0.5356;1.2757;
611.1000;0.5315;1.2546;
611.4000;0.5267;1.2406;
611.7000;0.5275;1.2429;
612.0000;0.5275;1.2453;
612.3000;0.5234;1.2406;
612.6000;0.5234;1.2406;
612.9000;0.5185;1.2429;
613.2000;0.5193;1.2523;
613.5000;0.5177;1.2570;
613.8000;0.5144;1.2523;
614.1000;0.5104;1.2546;
614.4000;0.5071;1.2476;
614.7000;0.5096;1.2616;
615.0000;0.5088;1.2687;
615.3000;0.5047;1.2616;
615.6000;0.5169;1.2897;
615.9000;0.5039;1.2546;
616.2000;0.5047;1.2406;
616.5000;0.5022;1.2289;
616.8000;0.5022;1.2242;
617.1000;0.5031;1.2219;
617.4000;0.4998;1.2242;
617.7000;0.4990;1.2265;
618.0000;0.4982;1.2242;
618.3000;0.4990;1.2289;
618.6000;0.4949;1.2289;
618.9000;0.4949;1.2172;
619.2000;0.4965;1.2101;
619.5000;0.4933;1.2055;
619.8000;0.4917;1.2078;
620.1000;0.4925;1.2172;
620.4000;0.4900;1.2148;
620.7000;0.4933;1.2195;
621.0000;0.4876;1.2101;
621.3000;0.4925;1.2219;
621.6000;0.4868;1.2031;
621.9000;0.4876;1.2008;
622.2000;0.4843;1.1914;
622.5000;0.4860;1.2101;
622.8000;0.4843;1.2101;
623.1000;0.4876;1.2101;
623.4000;0.4860;1.1984;
623.7000;0.4851;1.2078;
624.0000;0.4794;1.2055;
624.3000;0.4811;1.2031;
624.6000;0.4827;1.2031;
624.9000;0.4770;1.1984;
625.2000;0.4770;1.1914;
625.5000;0.4819;1.2078;
625.8000;0.4786;1.2055;
626.1000;0.4786;1.1984;
626.4000;0.4770;1.1914;
626.7000;0.4762;1.1867;
627.0000;0.4778;1.1844;
627.3000;0.4770;1.1867;
627.6000;0.4721;1.1680;
627.9000;0.4681;1.1587;
628.2000;0.4746;1.1727;
628.5000;0.4746;1.1774;
628.8000;0.4746;1.1750;
629.1000;0.4672;1.1610;
629.4000;0.4721;1.1704;
629.7000;0.4729;1.1774;
630.0000;0.4689;1.1750;
630.3000;0.4713;1.1891;
630.6000;0.4778;1.2031;
630.9000;0.4697;1.1867;
631.2000;0.4705;1.1914;
631.5000;0.4705;1.1961;
631.8000;0.4689;1.1891;
632.1000;0.4689;1.1938;
632.4000;0.4689;1.1914;
632.7000;0.4681;1.1867;
633.0000;0.4705;1.1984;
633.3000;0.4721;1.2008;
633.6000;0.4607;1.1797;
633.9000;0.4681;1.2055;
634.2000;0.4672;1.2055;
634.5000;0.4664;1.2031;
634.8000;0.4681;1.2101;
635.1000;0.4664;1.2031;
635.4000;0.4656;1.1961;
635.7000;0.4664;1.1891;
636.0000;0.4664;1.1891;
636.3000;0.4648;1.1844;
636.6000;0.4672;1.1821;
636.9000;0.4632;1.1797;
637.2000;0.4681;1.1984;
637.5000;0.4624;1.1914;
637.8000;0.4632;1.1938;
638.1000;0.4640;1.1961;
638.4000;0.4664;1.2055;
638.7000;0.4607;1.2078;
639.0000;0.4632;1.2008;
639.3000;0.4615;1.1774;
639.6000;0.4615;1.1727;
639.9000;0.4640;1.1774;
640.2000;0.4624;1.1704;
640.5000;0.4599;1.1657;
640.8000;0.4624;1.1821;
641.1000;0.4615;1.1891;
641.4000;0.4615;1.1867;
641.7000;0.4607;1.1821;
642.0000;0.4607;1.1867;
642.3000;0.4599;1.1961;
642.6000;0.4591;1.2008;
642.9000;0.4591;1.2008;
643.2000;0.4567;1.1914;
643.5000;0.4567;1.1984;
643.8000;0.4575;1.2008;
644.1000;0.4583;1.2031;
644.4000;0.4591;1.1984;
644.7000;0.4575;1.1984;
645.0000;0.4583;1.1938;
645.3000;0.4591;1.2008;
645.6000;0.4599;1.1914;
645.9000;0.4550;1.1704;
646.2000;0.4615;1.1844;
646.5000;0.4550;1.1727;
646.8000;0.4575;1.1891;
647.1000;0.4550;1.1891;
647.4000;0.4558;1.1914;
647.7000;0.4558;1.1938;
648.0000;0.4550;1.1891;
648.3000;0.4477;1.1797;
648.6000;0.4534;1.1867;
648.9000;0.4501;1.1844;
649.2000;0.4550;1.1891;
649.5000;0.4526;1.1844;
649.8000;0.4493;1.1727;
650.1000;0.4542;1.1844;
650.4000;0.4534;1.1938;
650.7000;0.4510;1.1891;
651.0000;0.4526;1.1961;
651.3000;0.4518;1.1844;
651.6000;0.4510;1.1891;
651.9000;0.4526;1.1914;
652.2000;0.4518;1.1867;
652.5000;0.4518;1.1867;
652.8000;0.4510;1.1844;
653.1000;0.4518;1.1891;
653.4000;0.4493;1.2008;
653.7000;0.4501;1.1984;
654.0000;0.4510;1.2055;
654.3000;0.4542;1.2008;
654.6000;0.4493;1.1867;
654.9000;0.4510;1.1961;
655.2000;0.4518;1.1984;
655.5000;0.4510;1.1938;
655.8000;0.4501;1.1821;
656.1000;0.4477;1.1750;
656.4000;0.4493;1.1774;
656.7000;0.4510;1.1821;
657.0000;0.4493;1.1844;
657.3000;0.4477;1.1844;
657.6000;0.4485;1.1821;
657.9000;0.4453;1.1657;
658.2000;0.4485;1.1750;
658.5000;0.4477;1.1680;
658.8000;0.4477;1.1610;
659.1000;0.4485;1.1633;
659.4000;0.4501;1.1610;
659.7000;0.4469;1.1633;
660.0000;0.4477;1.1750;
660.3000;0.4469;1.1704;
660.6000;0.4493;1.1774;
660.9000;0.4477;1.1704;
661.2000;0.4461;1.1633;
661.5000;0.4436;1.1540;
661.8000;0.4469;1.1657;
662.1000;0.4461;1.1727;
662.4000;0.4436;1.1704;
662.7000;0.4453;1.1750;
663.0000;0.4469;1.1867;
663.3000;0.4501;1.1938;
663.6000;0.4453;1.1844;
663.9000;0.4428;1.1891;
664.2000;0.4444;1.1844;
664.5000;0.4436;1.1774;
664.8000;0.4428;1.1844;
665.1000;0.4420;1.1844;
665.4000;0.4461;1.1867;
665.7000;0.4428;1.1867;
666.0000;0.4444;1.1984;
666.3000;0.4436;1.2031;
666.6000;0.4444;1.2172;
666.9000;0.4444;1.2148;
667.2000;0.4436;1.2101;
667.5000;0.4436;1.2101;
667.8000;0.4436;1.2125;
668.1000;0.4461;1.2219;
668.4000;0.4420;1.2195;
668.7000;0.4428;1.2289;
669.0000;0.4436;1.2265;
669.3000;0.4436;1.2219;
669.6000;0.4387;1.2195;
669.9000;0.4444;1.2242;
670.2000;0.4412;1.2242;
670.5000;0.4436;1.2242;
670.8000;0.4453;1.2312;
671.1000;0.4420;1.2195;
671.4000;0.4420;1.2242;
671.7000;0.4420;1.2242;
672.0000;0.4428;1.2289;
672.3000;0.4420;1.2312;
672.6000;0.4477;1.2453;
672.9000;0.4387;1.2312;
673.2000;0.4444;1.2382;
673.5000;0.4404;1.2242;
673.8000;0.4436;1.2382;
674.1000;0.4404;1.2289;
674.4000;0.4404;1.2312;
674.7000;0.4420;1.2336;
675.0000;0.4379;1.2265;
675.3000;0.4404;1.2265;
675.6000;0.4436;1.2312;
675.9000;0.4404;1.2195;
676.2000;0.4404;1.2195;
676.5000;0.4347;1.2055;
676.8000;0.4387;1.2195;
677.1000;0.4396;1.2172;
677.4000;0.4379;1.2078;
677.7000;0.4363;1.2101;
678.0000;0.4330;1.1961;
678.3000;0.4387;1.2078;
678.6000;0.4379;1.1984;
678.9000;0.4396;1.1984;
679.2000;0.4379;1.1961;
679.5000;0.4379;1.1961;
679.8000;0.4396;1.1961;
680.1000;0.4387;1.2008;
680.4000;0.4387;1.2055;
680.7000;0.4396;1.2195;
681.0000;0.4387;1.2195;
681.3000;0.4379;1.2219;
681.6000;0.4387;1.2219;
681.9000;0.4371;1.2195;
682.2000;0.4387;1.2289;
682.5000;0.4363;1.2242;
682.8000;0.4428;1.2453;
683.1000;0.4347;1.2195;
683.4000;0.4379;1.2125;
683.7000;0.4363;1.2055;
684.0000;0.4363;1.2008;
684.3000;0.4363;1.1938;
684.6000;0.4371;1.1938;
684.9000;0.4404;1.2031;
685.2000;0.4347;1.1938;
685.5000;0.4379;1.1984;
685.8000;0.4379;1.1984;
686.1000;0.4363;1.2031;
686.4000;0.4371;1.2125;
686.7000;0.4363;1.2101;
687.0000;0.4412;1.2125;
687.3000;0.4363;1.2008;
687.6000;0.4379;1.1938;
687.9000;0.4387;1.1914;
688.2000;0.4347;1.1891;
688.5000;0.4355;1.2031;
688.8000;0.4371;1.2055;
689.1000;0.4339;1.2055;
689.4000;0.4363;1.2078;
689.7000;0.4330;1.2078;
690.0000;0.4363;1.2148;
690.3000;0.4347;1.2125;
690.6000;0.4330;1.2008;
690.9000;0.4314;1.1867;
691.2000;0.4306;1.1938;
691.5000;0.4339;1.2101;
691.8000;0.4322;1.2078;
692.1000;0.4347;1.2195;
692.4000;0.4436;1.2523;
692.7000;0.4339;1.2312;
693.0000;0.4339;1.2312;
693.3000;0.4347;1.2242;
693.6000;0.4371;1.2265;
693.9000;0.4363;1.2242;
694.2000;0.4306;1.2219;
694.5000;0.4322;1.2242;
694.8000;0.4322;1.2242;
695.1000;0.4339;1.2265;
695.4000;0.4387;1.2406;
695.7000;0.4322;1.2265;
696.0000;0.4330;1.2312;
696.3000;0.4265;1.2242;
696.6000;0.4322;1.2219;
696.9000;0.4330;1.2265;
697.2000;0.4330;1.2125;
697.5000;0.4339;1.2195;
697.8000;0.4306;1.2078;
698.1000;0.4282;1.1984;
698.4000;0.4314;1.2078;
698.7000;0.4363;1.2101;
699.0000;0.4314;1.2008;
699.3000;0.4322;1.2008;
699.6000;0.4282;1.1914;
699.9000;0.4314;1.2101;
700.2000;0.4330;1.2148;
700.5000;0.4322;1.2148;
700.8000;0.4314;1.2148;
701.1000;0.4298;1.2172;
701.4000;0.4314;1.2148;
701.7000;0.4322;1.2148;
702.0000;0.4339;1.2242;
702.3000;0.4322;1.2289;
702.6000;0.4314;1.2265;
702.9000;0.4298;1.2195;
703.2000;0.4282;1.2078;
703.5000;0.4298;1.2148;
703.8000;0.4306;1.2219;
704.1000;0.4290;1.2195;
704.4000;0.4322;1.2242;
704.7000;0.4290;1.2195;
705.0000;0.4306;1.2148;
705.3000;0.4282;1.2125;
705.6000;0.4290;1.2101;
705.9000;0.4274;1.2101;
706.2000;0.4306;1.2172;
706.5000;0.4306;1.2172;
706.8000;0.4306;1.2125;
707.1000;0.4298;1.2055;
707.4000;0.4363;1.2195;
707.7000;0.4290;1.2055;
708.0000;0.4306;1.2148;
708.3000;0.4257;1.2055;
708.6000;0.4290;1.2172;
708.9000;0.4290;1.2148;
709.2000;0.4274;1.2148;
709.5000;0.4274;1.2219;
709.8000;0.4355;1.2359;
710.1000;0.4306;1.2172;
710.4000;0.4290;1.2078;
710.7000;0.4282;1.2055;
711.0000;0.4306;1.2101;
711.3000;0.4265;1.2125;
711.6000;0.4290;1.2125;
711.9000;0.4257;1.2125;
712.2000;0.4282;1.2242;
712.5000;0.4282;1.2148;
712.8000;0.4290;1.2125;
713.1000;0.4282;1.2078;
713.4000;0.4249;1.1914;
713.7000;0.4257;1.1891;
714.0000;0.4290;1.1984;
714.3000;0.4265;1.1961;
714.6000;0.4282;1.2055;
714.9000;0.4282;1.2055;
715.2000;0.4290;1.2101;
715.5000;0.4290;1.2078;
715.8000;0.4249;1.1984;
716.1000;0.4330;1.2148;
716.4000;0.4249;1.1938;
716.7000;0.4290;1.1984;
717.0000;0.4225;1.1867;
717.3000;0.4274;1.2031;
717.6000;0.4257;1.2008;
717.9000;0.4274;1.2078;
718.2000;0.4249;1.2055;
718.5000;0.4257;1.2125;
718.8000;0.4265;1.2031;
719.1000;0.4282;1.2008;
719.4000;0.4233;1.1961;
719.7000;0.4249;1.1961;
720.0000;0.4257;1.2008;
720.3000;0.4274;1.2172;
720.6000;0.4274;1.2195;
720.9000;0.4265;1.2265;
721.2000;0.4274;1.2195;
721.5000;0.4241;1.2055;
721.8000;0.4265;1.2125;
722.1000;0.4265;1.2125;
722.4000;0.4265;1.2148;
722.7000;0.4249;1.2078;
723.0000;0.4257;1.2031;
723.3000;0.4249;1.2055;
723.6000;0.4282;1.2031;
723.9000;0.4208;1.1914;
724.2000;0.4257;1.2055;
724.5000;0.4306;1.2125;
724.8000;0.4265;1.2101;
725.1000;0.4241;1.2031;
725.4000;0.4265;1.2101;
725.7000;0.4257;1.2195;
726.0000;0.4265;1.2219;
726.3000;0.4249;1.2242;
726.6000;0.4290;1.2429;
726.9000;0.4274;1.2499;
727.2000;0.4249;1.2406;
727.5000;0.4298;1.2546;
727.8000;0.4225;1.2406;
728.1000;0.4225;1.2453;
728.4000;0.4257;1.2593;
728.7000;0.4314;1.2710;
729.0000;0.4233;1.2616;
729.3000;0.4330;1.2757;
729.6000;0.4249;1.2546;
729.9000;0.4233;1.2499;
730.2000;0.4249;1.2499;
730.5000;0.4233;1.2382;
730.8000;0.4192;1.2195;
731.1000;0.4233;1.2265;
731.4000;0.4241;1.2265;
731.7000;0.4143;1.2078;
732.0000;0.4257;1.2336;
732.3000;0.4257;1.2312;
732.6000;0.4314;1.2453;
732.9000;0.4265;1.2265;
733.2000;0.4241;1.2219;
733.5000;0.4241;1.2195;
733.8000;0.4241;1.2125;
734.1000;0.4265;1.2172;
734.4000;0.4225;1.2125;
734.7000;0.4225;1.2125;
735.0000;0.4233;1.2195;
735.3000;0.4225;1.2219;
735.6000;0.4241;1.2172;
735.9000;0.4233;1.2242;
736.2000;0.4249;1.2265;
736.5000;0.4241;1.2148;
736.8000;0.4241;1.2172;
737.1000;0.4241;1.2219;
737.4000;0.4200;1.2148;
737.7000;0.4200;1.2101;
738.0000;0.4217;1.2101;
738.3000;0.4225;1.2148;
738.6000;0.4233;1.2172;
738.9000;0.4225;1.2125;
739.2000;0.4249;1.2148;
739.5000;0.4208;1.2148;
739.8000;0.4208;1.2125;
740.1000;0.4225;1.2148;
740.4000;0.4208;1.2195;
740.7000;0.4208;1.2265;
741.0000;0.4225;1.2336;
741.3000;0.4208;1.2359;
741.6000;0.4192;1.2289;
741.9000;0.4225;1.2336;
742.2000;0.4208;1.2289;
742.5000;0.4168;1.2148;
742.8000;0.4241;1.2289;
743.1000;0.4217;1.2195;
743.4000;0.4217;1.2172;
743.7000;0.4208;1.2148;
744.0000;0.4225;1.2172;
744.3000;0.4208;1.2125;
744.6000;0.4282;1.2289;
744.9000;0.4225;1.2219;
745.2000;0.4225;1.2219;
745.5000;0.4233;1.2242;
745.8000;0.4225;1.2125;
746.1000;0.4208;1.2148;
746.4000;0.4192;1.2125;
746.7000;0.4233;1.2172;
747.0000;0.4233;1.2195;
747.3000;0.4249;1.2289;
747.6000;0.4233;1.2242;
747.9000;0.4249;1.2382;
748.2000;0.4241;1.2336;
748.5000;0.4233;1.2242;
748.8000;0.4225;1.2219;
749.1000;0.4217;1.2172;
749.4000;0.4192;1.2125;
749.7000;0.4225;1.2148;
750.0000;0.4233;1.2219;
750.3000;0.4225;1.2195;
750.6000;0.4200;1.2172;
750.9000;0.4282;1.2382;
751.2000;0.4217;1.2219;
751.5000;0.4225;1.2242;
751.8000;0.4217;1.2289;
752.1000;0.4225;1.2219;
752.4000;0.4233;1.2219;
752.7000;0.4233;1.2265;
753.0000;0.4176;1.2125;
753.3000;0.4208;1.2219;
753.6000;0.4217;1.2172;
753.9000;0.4217;1.2078;
754.2000;0.4200;1.2031;
754.5000;0.4208;1.2031;
754.8000;0.4127;1.1891;
755.1000;0.4233;1.2172;
755.4000;0.4143;1.2031;
755.7000;0.4192;1.2101;
756.0000;0.4184;1.2008;
756.3000;0.4217;1.1984;
756.6000;0.4192;1.1984;
756.9000;0.4192;1.1984;
757.2000;0.4208;1.2008;
757.5000;0.4200;1.2055;
757.8000;0.4208;1.2195;
758.1000;0.4208;1.2148;
758.4000;0.4200;1.2219;
758.7000;0.4184;1.2289;
759.0000;0.4208;1.2382;
759.3000;0.4168;1.2289;
759.6000;0.4176;1.2219;
759.9000;0.4176;1.2265;
760.2000;0.4184;1.2265;
760.5000;0.4208;1.2312;
760.8000;0.4257;1.2429;
761.1000;0.4192;1.2312;
761.4000;0.4208;1.2336;
761.7000;0.4168;1.2148;
762.0000;0.4176;1.2195;
762.3000;0.4200;1.2172;
762.6000;0.4208;1.2148;
762.9000;0.4249;1.2219;
763.2000;0.4217;1.2078;
763.5000;0.4151;1.2031;
763.8000;0.4192;1.2148;
764.1000;0.4192;1.2172;
764.4000;0.4184;1.2031;
764.7000;0.4208;1.2101;
765.0000;0.4192;1.2101;
765.3000;0.4200;1.2055;
765.6000;0.4176;1.2148;
765.9000;0.4143;1.2055;
766.2000;0.4168;1.2195;
766.5000;0.4282;1.2546;
766.8000;0.4168;1.2265;
767.1000;0.4168;1.2125;
767.4000;0.4184;1.2125;
767.7000;0.4233;1.2265;
768.0000;0.4184;1.2195;
768.3000;0.4192;1.2265;
768.6000;0.4184;1.2195;
768.9000;0.4192;1.2289;
769.2000;0.4192;1.2359;
769.5000;0.4241;1.2359;
769.8000;0.4176;1.2219;
770.1000;0.4176;1.2219;
770.4000;0.4184;1.2219;
770.7000;0.4176;1.2195;
771.0000;0.4176;1.2219;
771.3000;0.4184;1.2359;
771.6000;0.4176;1.2382;
771.9000;0.4176;1.2336;
772.2000;0.4192;1.2406;
772.5000;0.4184;1.2312;
772.8000;0.4184;1.2289;
773.1000;0.4241;1.2312;
773.4000;0.4176;1.2172;
773.7000;0.4151;1.2148;
774.0000;0.4168;1.2219;
774.3000;0.4192;1.2265;
774.6000;0.4176;1.2195;
774.9000;0.4176;1.2219;
775.2000;0.4184;1.2172;
775.5000;0.4184;1.2172;
775.8000;0.4184;1.2195;
776.1000;0.4176;1.2125;
776.4000;0.4184;1.2219;
776.7000;0.4200;1.2312;
777.0000;0.4200;1.2382;
777.3000;0.4176;1.2289;
777.6000;0.4143;1.2195;
777.9000;0.4151;1.2242;
778.2000;0.4160;1.2265;
778.5000;0.4135;1.2219;
778.8000;0.4168;1.2312;
779.1000;0.4160;1.2219;
779.4000;0.4103;1.2078;
779.7000;0.4160;1.2242;
780.0000;0.4143;1.2195;
780.3000;0.4151;1.2195;
780.6000;0.4176;1.2195;
780.9000;0.4233;1.2336;
781.2000;0.4160;1.2172;
781.5000;0.4103;1.1984;
781.8000;0.4208;1.2242;
782.1000;0.4168;1.2336;
782.4000;0.4160;1.2406;
782.7000;0.4217;1.2476;
783.0000;0.4184;1.2406;
783.3000;0.4200;1.2453;
783.6000;0.4192;1.2429;
783.9000;0.4265;1.2616;
784.2000;0.4160;1.2476;
784.5000;0.4176;1.2570;
784.8000;0.4184;1.2616;
785.1000;0.4160;1.2499;
785.4000;0.4160;1.2453;
785.7000;0.4143;1.2382;
786.0000;0.4143;1.2476;
786.3000;0.4200;1.2593;
786.6000;0.4225;1.2570;
786.9000;0.4168;1.2453;
787.2000;0.4160;1.2499;
787.5000;0.4168;1.2453;
787.8000;0.4160;1.2429;
788.1000;0.4168;1.2429;
788.4000;0.4176;1.2453;
788.7000;0.4151;1.2406;
789.0000;0.4176;1.2429;
789.3000;0.4151;1.2429;
789.6000;0.4151;1.2406;
789.9000;0.4160;1.2453;
790.2000;0.4151;1.2523;
790.5000;0.4168;1.2546;
790.8000;0.4086;1.2382;
791.1000;0.4249;1.2851;
791.4000;0.4111;1.2593;
791.7000;0.4184;1.2757;
792.0000;0.4078;1.2523;
792.3000;0.4168;1.2757;
792.6000;0.4151;1.2757;
792.9000;0.4192;1.2804;
793.2000;0.4184;1.2757;
793.5000;0.4184;1.2780;
793.8000;0.4160;1.2640;
794.1000;0.4151;1.2570;
794.4000;0.4151;1.2570;
794.7000;0.4168;1.2570;
795.0000;0.4143;1.2523;
795.3000;0.4176;1.2476;
795.6000;0.4135;1.2382;
795.9000;0.4135;1.2429;
796.2000;0.4143;1.2382;
796.5000;0.4160;1.2359;
796.8000;0.4168;1.2289;
797.1000;0.4168;1.2289;
797.4000;0.4151;1.2195;
797.7000;0.4176;1.2195;
798.0000;0.4143;1.2195;
798.3000;0.4176;1.2219;
798.6000;0.4176;1.2172;
798.9000;0.4151;1.2125;
799.2000;0.4151;1.2055;
799.5000;0.4143;1.2078;
799.8000;0.4160;1.2101;
800.1000;0.4176;1.2172;
800.4000;0.4143;1.2148;
800.7000;0.4070;1.1914;
801.0000;0.4127;1.1961;
801.3000;0.4127;1.2008;
801.6000;0.4143;1.2031;
801.9000;0.4127;1.2031;
802.2000;0.4119;1.2125;
802.5000;0.4078;1.2008;
802.8000;0.4070;1.2008;
803.1000;0.4151;1.2148;
803.4000;0.4168;1.2172;
803.7000;0.4151;1.2148;
804.0000;0.4143;1.2125;
804.3000;0.4135;1.2172;
804.6000;0.4135;1.2265;
804.9000;0.4208;1.2476;
805.2000;0.4160;1.2336;
805.5000;0.4054;1.2055;
805.8000;0.4151;1.2312;
806.1000;0.4143;1.2172;
806.4000;0.4143;1.2195;
806.7000;0.4200;1.2382;
807.0000;0.4143;1.2172;
807.3000;0.4168;1.2172;
807.6000;0.4143;1.2078;
807.9000;0.4135;1.2125;
808.2000;0.4151;1.2148;
808.5000;0.4176;1.2195;
808.8000;0.4103;1.2078;
809.1000;0.4160;1.2242;
809.4000;0.4143;1.2219;
809.7000;0.4143;1.2219;
810.0000;0.4135;1.2195;
810.3000;0.4143;1.2242;
810.6000;0.4135;1.2242;
810.9000;0.4135;1.2148;
811.2000;0.4103;1.2125;
811.5000;0.4135;1.2219;
811.8000;0.4143;1.2219;
812.1000;0.4119;1.2195;
812.4000;0.4151;1.2336;
812.7000;0.4135;1.2219;
813.0000;0.4135;1.2101;
813.3000;0.4135;1.2078;
813.6000;0.4135;1.2148;
813.9000;0.4151;1.2219;
814.2000;0.4135;1.2195;
814.5000;0.4111;1.2242;
814.8000;0.4143;1.2265;
815.1000;0.4127;1.2172;
815.4000;0.4160;1.2289;
815.7000;0.4119;1.2125;
816.0000;0.4119;1.2101;
816.3000;0.4119;1.2219;
816.6000;0.4119;1.2219;
816.9000;0.4127;1.2078;
817.2000;0.4119;1.2055;
817.5000;0.4070;1.1961;
817.8000;0.4119;1.2008;
818.1000;0.4135;1.2008;
818.4000;0.4135;1.1938;
818.7000;0.4094;1.1844;
819.0000;0.4127;1.2008;
819.3000;0.4143;1.1938;
819.6000;0.4135;1.2008;
819.9000;0.4143;1.2055;
820.2000;0.4143;1.2055;
820.5000;0.4160;1.2101;
820.8000;0.4094;1.2078;
821.1000;0.4119;1.2125;
821.4000;0.4127;1.2031;
821.7000;0.4119;1.2031;
822.0000;0.4168;1.2148;
822.3000;0.4127;1.2078;
822.6000;0.4135;1.2172;
822.9000;0.4143;1.2172;
823.2000;0.4135;1.2101;
823.5000;0.4151;1.2195;
823.8000;0.4103;1.2101;
824.1000;0.4127;1.2148;
824.4000;0.4127;1.2172;
824.7000;0.4086;1.2101;
825.0000;0.4160;1.2289;
825.3000;0.4143;1.2312;
825.6000;0.4135;1.2336;
825.9000;0.4119;1.2195;
826.2000;0.4119;1.2195;
826.5000;0.4225;1.2499;
826.8000;0.4143;1.2382;
827.1000;0.4127;1.2382;
827.4000;0.4119;1.2429;
827.7000;0.4127;1.2382;
828.0000;0.4111;1.2336;
828.3000;0.4127;1.2406;
828.6000;0.4127;1.2429;
828.9000;0.4127;1.2359;
829.2000;0.4135;1.2382;
829.5000;0.4127;1.2312;
829.8000;0.4086;1.2125;
830.1000;0.4070;1.2078;
830.4000;0.4135;1.2148;
830.7000;0.4119;1.2055;
831.0000;0.4127;1.2265;
831.3000;0.4135;1.2336;
831.6000;0.4135;1.2312;
831.9000;0.4127;1.2265;
832.2000;0.4127;1.2242;
832.5000;0.4103;1.2195;
832.8000;0.4135;1.2289;
833.1000;0.4135;1.2265;
833.4000;0.4168;1.2289;
833.7000;0.4135;1.2336;
834.0000;0.4119;1.2242;
834.3000;0.4111;1.2172;
834.6000;0.4111;1.2101;
834.9000;0.4127;1.2148;
835.2000;0.4094;1.2055;
835.5000;0.4160;1.2265;
835.8000;0.4119;1.2219;
836.1000;0.4013;1.1961;
836.4000;0.4111;1.2195;
836.7000;0.4111;1.2289;
837.0000;0.4119;1.2406;
837.3000;0.4103;1.2429;
837.6000;0.4119;1.2453;
837.9000;0.4111;1.2523;
838.2000;0.4111;1.2523;
838.5000;0.4103;1.2476;
838.8000;0.4103;1.2359;
839.1000;0.4111;1.2382;
839.4000;0.4103;1.2406;
839.7000;0.4127;1.2382;
840.0000;0.4103;1.2359;
840.3000;0.4135;1.2499;
840.6000;0.4111;1.2359;
840.9000;0.4094;1.2336;
841.2000;0.4086;1.2265;
841.5000;0.4062;1.2125;
841.8000;0.4119;1.2265;
842.1000;0.4135;1.2242;
842.4000;0.4119;1.2172;
842.7000;0.4094;1.2055;
843.0000;0.4119;1.2172;
843.3000;0.4135;1.2148;
843.6000;0.4127;1.2078;
843.9000;0.4127;1.2031;
844.2000;0.4086;1.1914;
844.5000;0.4127;1.2008;
844.8000;0.4111;1.1914;
845.1000;0.4111;1.2031;
845.4000;0.4151;1.2172;
845.7000;0.4111;1.2101;
846.0000;0.4111;1.2078;
846.3000;0.4127;1.2101;
846.6000;0.4151;1.2242;
846.9000;0.4103;1.2125;
847.2000;0.4094;1.2078;
847.5000;0.4103;1.2101;
847.8000;0.4086;1.2101;
848.1000;0.4111;1.2148;
848.4000;0.4094;1.2125;
848.7000;0.4160;1.2265;
849.0000;0.4070;1.2101;
849.3000;0.4184;1.2453;
849.6000;0.4111;1.2265;
849.9000;0.4094;1.2265;
850.2000;0.4094;1.2265;
850.5000;0.4103;1.2312;
850.8000;0.4094;1.2242;
851.1000;0.4103;1.2312;
851.4000;0.4094;1.2336;
851.7000;0.4111;1.2382;
852.0000;0.4119;1.2382;
852.3000;0.4103;1.2359;
852.6000;0.4103;1.2359;
852.9000;0.4062;1.2359;
853.2000;0.4086;1.2499;
853.5000;0.4111;1.2570;
853.8000;0.4094;1.2523;
854.1000;0.4078;1.2453;
854.4000;0.4103;1.2499;
854.7000;0.4094;1.2476;
855.0000;0.4094;1.2570;
855.3000;0.4103;1.2546;
855.6000;0.4135;1.2663;
855.9000;0.4086;1.2616;
856.2000;0.4086;1.2640;
856.5000;0.4094;1.2570;
856.8000;0.4103;1.2546;
857.1000;0.4143;1.2616;
857.4000;0.4070;1.2406;
857.7000;0.4111;1.2616;
858.0000;0.4143;1.2710;
858.3000;0.4094;1.2593;
858.6000;0.4119;1.2570;
858.9000;0.4070;1.2406;
859.2000;0.4086;1.2570;
859.5000;0.4111;1.2616;
859.8000;0.4103;1.2546;
860.1000;0.4103;1.2593;
860.4000;0.4111;1.2593;
860.7000;0.4119;1.2570;
861.0000;0.4127;1.2593;
861.3000;0.4111;1.2570;
861.6000;0.4078;1.2406;
861.9000;0.4111;1.2453;
862.2000;0.4103;1.2453;
862.5000;0.4078;1.2453;
862.8000;0.4086;1.2406;
863.1000;0.4029;1.2219;
863.4000;0.4103;1.2359;
863.7000;0.4200;1.2593;
864.0000;0.4094;1.2289;
864.3000;0.4094;1.2289;
864.6000;0.4103;1.2289;
864.9000;0.4103;1.2336;
865.2000;0.4103;1.2336;
865.5000;0.4086;1.2265;
865.8000;0.4151;1.2336;
866.1000;0.4103;1.2336;
866.4000;0.4143;1.2453;
866.7000;0.4111;1.2359;
867.0000;0.4103;1.2406;
867.3000;0.4119;1.2546;
867.6000;0.4094;1.2499;
867.9000;0.4094;1.2429;
868.2000;0.4094;1.2336;
868.5000;0.4111;1.2382;
868.8000;0.4086;1.2289;
869.1000;0.4103;1.2359;
869.4000;0.4103;1.2336;
869.7000;0.4094;1.2336;
870.0000;0.4135;1.2429;
870.3000;0.4094;1.2359;
870.6000;0.4094;1.2359;
870.9000;0.4094;1.2429;
871.2000;0.4094;1.2476;
871.5000;0.4094;1.2499;
871.8000;0.4094;1.2570;
872.1000;0.4111;1.2663;
872.4000;0.4103;1.2640;
872.7000;0.4078;1.2570;
873.0000;0.4086;1.2570;
873.3000;0.4078;1.2546;
873.6000;0.4094;1.2476;
873.9000;0.4078;1.2359;
874.2000;0.4070;1.2382;
874.5000;0.4086;1.2546;
874.8000;0.4094;1.2640;
875.1000;0.4119;1.2663;
875.4000;0.4070;1.2593;
875.7000;0.4078;1.2476;
876.0000;0.4119;1.2546;
876.3000;0.4103;1.2453;
876.6000;0.4094;1.2453;
876.9000;0.4103;1.2429;
877.2000;0.4119;1.2382;
877.5000;0.4086;1.2289;
877.8000;0.4094;1.2265;
878.1000;0.4103;1.2406;
878.4000;0.4062;1.2359;
878.7000;0.4086;1.2499;
879.0000;0.4037;1.2265;
879.3000;0.4086;1.2312;
879.6000;0.4086;1.2289;
879.9000;0.4111;1.2453;
880.2000;0.4094;1.2453;
880.5000;0.4046;1.2382;
880.8000;0.4103;1.2593;
881.1000;0.4094;1.2593;
881.4000;0.4208;1.2804;
881.7000;0.4160;1.2593;
882.0000;0.4086;1.2382;
882.3000;0.4070;1.2336;
882.6000;0.4094;1.2570;
882.9000;0.4086;1.2570;
883.2000;0.4078;1.2523;
883.5000;0.4054;1.2499;
883.8000;0.4070;1.2546;
884.1000;0.4127;1.2687;
884.4000;0.4070;1.2523;
884.7000;0.4037;1.2453;
885.0000;0.4070;1.2616;
885.3000;0.4094;1.2593;
885.6000;0.4078;1.2570;
885.9000;0.4070;1.2499;
886.2000;0.4054;1.2406;
886.5000;0.4086;1.2476;
886.8000;0.4111;1.2499;
887.1000;0.4054;1.2336;
887.4000;0.4070;1.2359;
887.7000;0.4078;1.2476;
888.0000;0.4062;1.2476;
888.3000;0.4086;1.2476;
888.6000;0.4070;1.2382;
888.9000;0.4078;1.2382;
889.2000;0.4078;1.2406;
889.5000;0.4103;1.2359;
889.8000;0.4094;1.2289;
890.1000;0.4086;1.2242;
890.4000;0.4094;1.2336;
890.7000;0.4094;1.2406;
891.0000;0.4078;1.2406;
891.3000;0.4111;1.2476;
891.6000;0.4111;1.2570;
891.9000;0.4021;1.2359;
892.2000;0.4094;1.2546;
892.5000;0.4086;1.2429;
892.8000;0.4054;1.2265;
893.1000;0.4086;1.2406;
893.4000;0.4078;1.2406;
893.7000;0.4151;1.2570;
894.0000;0.4103;1.2499;
894.3000;0.4103;1.2499;
894.6000;0.4086;1.2499;
894.9000;0.4054;1.2453;
895.2000;0.4078;1.2523;
895.5000;0.3980;1.2242;
895.8000;0.4078;1.2453;
896.1000;0.4078;1.2499;
896.4000;0.4086;1.2546;
896.7000;0.4062;1.2593;
897.0000;0.4086;1.2546;
897.3000;0.4078;1.2499;
897.6000;0.4054;1.2453;
897.9000;0.4103;1.2616;
898.2000;0.4078;1.2546;
898.5000;0.4070;1.2546;
898.8000;0.4070;1.2499;
899.1000;0.4086;1.2523;
899.4000;0.4103;1.2499;
899.7000;0.4062;1.2429;
900.0000;0.4094;1.2523;
900.3000;0.4094;1.2429;
900.6000;0.4086;1.2453;
900.9000;0.4094;1.2453;
901.2000;0.4078;1.2453;
901.5000;0.4054;1.2453;
901.8000;0.4094;1.2593;
902.1000;0.4168;1.2780;
902.4000;0.4070;1.2523;
902.7000;0.4086;1.2523;
903.0000;0.4103;1.2570;
903.3000;0.4119;1.2570;
903.6000;0.4070;1.2429;
903.9000;0.4078;1.2429;
904.2000;0.4103;1.2523;
904.5000;0.4070;1.2570;
904.8000;0.4062;1.2546;
905.1000;0.3989;1.2406;
905.4000;0.4078;1.2593;
905.7000;0.4078;1.2570;
906.0000;0.4070;1.2593;
906.3000;0.4094;1.2616;
906.6000;0.4086;1.2546;
906.9000;0.4070;1.2546;
907.2000;0.4086;1.2593;
907.5000;0.4070;1.2546;
907.8000;0.4135;1.2593;
908.1000;0.4005;1.2219;
908.4000;0.4078;1.2289;
908.7000;0.4062;1.2336;
909.0000;0.4054;1.2406;
909.3000;0.4054;1.2382;
909.6000;0.4070;1.2476;
909.9000;0.4078;1.2616;
910.2000;0.4062;1.2593;
910.5000;0.4062;1.2616;
910.8000;0.4094;1.2687;
911.1000;0.4070;1.2687;
911.4000;0.4086;1.2663;
911.7000;0.4070;1.2546;
912.0000;0.4078;1.2593;
912.3000;0.4070;1.2616;
912.6000;0.4078;1.2640;
912.9000;0.4135;1.2757;
913.2000;0.4070;1.2570;
913.5000;0.4103;1.2570;
913.8000;0.4062;1.2429;
914.1000;0.4054;1.2382;
914.4000;0.4103;1.2570;
914.7000;0.4135;1.2546;
915.0000;0.4070;1.2336;
915.3000;0.4062;1.2336;
915.6000;0.4086;1.2359;
915.9000;0.4070;1.2359;
916.2000;0.4094;1.2406;
916.5000;0.4086;1.2499;
916.8000;0.4062;1.2499;
917.1000;0.4070;1.2570;
917.4000;0.4086;1.2570;
917.7000;0.4070;1.2453;
918.0000;0.4070;1.2453;
918.3000;0.3980;1.2242;
918.6000;0.4078;1.2546;
918.9000;0.4070;1.2523;
919.2000;0.4086;1.2616;
919.5000;0.4135;1.2733;
919.8000;0.4078;1.2616;
920.1000;0.4062;1.2616;
920.4000;0.4078;1.2687;
920.7000;0.4119;1.2780;
921.0000;0.4078;1.2640;
921.3000;0.4094;1.2640;
921.6000;0.4078;1.2593;
921.9000;0.3972;1.2336;
922.2000;0.4094;1.2616;
922.5000;0.4078;1.2476;
922.8000;0.4062;1.2499;
923.1000;0.4054;1.2382;
923.4000;0.4062;1.2429;
923.7000;0.4086;1.2523;
924.0000;0.4078;1.2429;
924.3000;0.4054;1.2476;
924.6000;0.4078;1.2429;
924.9000;0.4103;1.2453;
925.2000;0.4046;1.2336;
925.5000;0.4062;1.2312;
925.8000;0.4086;1.2265;
926.1000;0.4005;1.1984;
926.4000;0.4070;1.2195;
926.7000;0.4070;1.2219;
927.0000;0.4094;1.2265;
927.3000;0.4094;1.2312;
927.6000;0.4070;1.2265;
927.9000;0.4078;1.2336;
928.2000;0.4086;1.2336;
928.5000;0.4086;1.2336;
928.8000;0.4094;1.2242;
929.1000;0.4151;1.2406;
929.4000;0.4094;1.2336;
929.7000;0.4070;1.2382;
930.0000;0.4037;1.2336;
930.3000;0.4070;1.2359;
930.6000;0.4070;1.2453;
930.9000;0.4046;1.2429;
931.2000;0.4054;1.2476;
931.5000;0.4086;1.2546;
931.8000;0.4054;1.2429;
932.1000;0.4070;1.2476;
932.4000;0.4070;1.2570;
932.7000;0.4078;1.2570;
933.0000;0.4135;1.2687;
933.3000;0.4054;1.2570;
933.6000;0.4070;1.2663;
933.9000;0.4054;1.2523;
934.2000;0.4078;1.2570;
934.5000;0.4054;1.2499;
934.8000;0.4062;1.2546;
935.1000;0.4086;1.2616;
935.4000;0.4021;1.2523;
935.7000;0.4070;1.2663;
936.0000;0.4062;1.2570;
936.3000;0.4086;1.2593;
936.6000;0.4062;1.2640;
936.9000;0.4078;1.2570;
937.2000;0.4078;1.2570;
937.5000;0.4086;1.2570;
937.8000;0.4078;1.2499;
938.1000;0.4037;1.2289;
938.4000;0.4021;1.2219;
938.7000;0.4029;1.2242;
939.0000;0.4070;1.2406;
939.3000;0.4119;1.2499;
939.6000;0.3980;1.2172;
939.9000;0.4062;1.2312;
940.2000;0.4062;1.2289;
940.5000;0.4062;1.2242;
940.8000;0.3964;1.2008;
941.1000;0.4062;1.2289;
941.4000;0.4078;1.2476;
941.7000;0.4046;1.2476;
942.0000;0.4062;1.2476;
942.3000;0.4070;1.2523;
942.6000;0.4103;1.2570;
942.9000;0.4062;1.2523;
943.2000;0.4054;1.2406;
943.5000;0.4078;1.2382;
943.8000;0.4070;1.2359;
944.1000;0.4062;1.2382;
944.4000;0.4078;1.2523;
944.7000;0.4070;1.2476;
945.0000;0.4054;1.2336;
945.3000;0.4070;1.2312;
945.6000;0.4070;1.2265;
945.9000;0.4054;1.2172;
946.2000;0.4086;1.2195;
946.5000;0.4078;1.2172;
946.8000;0.4070;1.2172;
947.1000;0.4046;1.2125;
947.4000;0.4054;1.2195;
947.7000;0.4046;1.2219;
948.0000;0.4070;1.2406;
948.3000;0.4078;1.2382;
948.6000;0.4070;1.2382;
948.9000;0.4062;1.2429;
949.2000;0.4086;1.2523;
949.5000;0.4103;1.2640;
949.8000;0.4054;1.2499;
950.1000;0.4078;1.2570;
950.4000;0.4094;1.2663;
950.7000;0.4070;1.2663;
951.0000;0.4086;1.2757;
951.3000;0.4078;1.2780;
951.6000;0.4013;1.2546;
951.9000;0.4094;1.2757;
952.2000;0.4062;1.2733;
952.5000;0.4062;1.2663;
952.8000;0.4078;1.2687;
953.1000;0.4037;1.2570;
953.4000;0.4078;1.2640;
953.7000;0.4070;1.2687;
954.0000;0.4070;1.2710;
954.3000;0.4062;1.2616;
954.6000;0.4070;1.2640;
954.9000;0.4046;1.2593;
955.2000;0.4013;1.2476;
955.5000;0.4070;1.2687;
955.8000;0.3997;1.2429;
956.1000;0.4054;1.2593;
956.4000;0.4054;1.2640;
956.7000;0.3997;1.2523;
957.0000;0.4062;1.2593;
957.3000;0.4062;1.2570;
957.6000;0.4046;1.2523;
957.9000;0.4054;1.2593;
958.2000;0.4054;1.2570;
958.5000;0.4037;1.2546;
958.8000;0.4054;1.2523;
959.1000;0.4046;1.2523;
959.4000;0.4086;1.2663;
959.7000;0.4046;1.2616;
960.0000;0.4054;1.2523;
960.3000;0.4062;1.2499;
960.6000;0.4070;1.2453;
960.9000;0.4054;1.2359;
961.2000;0.4046;1.2382;
961.5000;0.4046;1.2476;
961.8000;0.4070;1.2640;
962.1000;0.4062;1.2593;
962.4000;0.4062;1.2593;
962.7000;0.4037;1.2429;
963.0000;0.4078;1.2593;
963.3000;0.4062;1.2523;
963.6000;0.3989;1.2265;
963.9000;0.4054;1.2406;
964.2000;0.4054;1.2359;
964.5000;0.3997;1.2265;
964.8000;0.4029;1.2382;
965.1000;0.4054;1.2476;
965.4000;0.4037;1.2476;
965.7000;0.4111;1.2593;
966.0000;0.4054;1.2499;
966.3000;0.4029;1.2499;
966.6000;0.4013;1.2523;
966.9000;0.4078;1.2710;
967.2000;0.4054;1.2640;
967.5000;0.4029;1.2593;
967.8000;0.4046;1.2570;
968.1000;0.4054;1.2593;
968.4000;0.4070;1.2640;
968.7000;0.4013;1.2546;
969.0000;0.4103;1.2733;
969.3000;0.4070;1.2616;
969.6000;0.4046;1.2593;
969.9000;0.4054;1.2593;
970.2000;0.4062;1.2616;
970.5000;0.4037;1.2663;
970.8000;0.4046;1.2593;
971.1000;0.4037;1.2593;
971.4000;0.4037;1.2570;
971.7000;0.4103;1.2593;
972.0000;0.4070;1.2499;
972.3000;0.4037;1.2336;
972.6000;0.4046;1.2312;
972.9000;0.4054;1.2382;
973.2000;0.4070;1.2476;
973.5000;0.4029;1.2359;
973.8000;0.4037;1.2429;
974.1000;0.4062;1.2382;
974.4000;0.4046;1.2359;
974.7000;0.4046;1.2406;
975.0000;0.4037;1.2406;
975.3000;0.4054;1.2429;
975.6000;0.4037;1.2546;
975.9000;0.4078;1.2663;
976.2000;0.4046;1.2663;
976.5000;0.4086;1.2757;
976.8000;0.4037;1.2733;
977.1000;0.4086;1.2780;
977.4000;0.4054;1.2640;
977.7000;0.3997;1.2453;
978.0000;0.4103;1.2757;
978.3000;0.4054;1.2640;
978.6000;0.4054;1.2663;
978.9000;0.4037;1.2593;
979.2000;0.4005;1.2499;
979.5000;0.4037;1.2687;
979.8000;0.4054;1.2687;
980.1000;0.4029;1.2570;
980.4000;0.4054;1.2616;
980.7000;0.3997;1.2429;
981.0000;0.4054;1.2546;
981.3000;0.4046;1.2453;
981.6000;0.4054;1.2476;
981.9000;0.4037;1.2429;
982.2000;0.4037;1.2523;
982.5000;0.4062;1.2523;
982.8000;0.4062;1.2593;
983.1000;0.4054;1.2593;
983.4000;0.4062;1.2616;
983.7000;0.4062;1.2687;
984.0000;0.4054;1.2616;
984.3000;0.4037;1.2546;
984.6000;0.4062;1.2640;
984.9000;0.4054;1.2616;
985.2000;0.4054;1.2616;
985.5000;0.4046;1.2546;
985.8000;0.4103;1.2616;
986.1000;0.3964;1.2312;
986.4000;0.4046;1.2546;
986.7000;0.4046;1.2429;
987.0000;0.4062;1.2429;
987.3000;0.4054;1.2453;
987.6000;0.4078;1.2476;
987.9000;0.4070;1.2429;
988.2000;0.4062;1.2476;
988.5000;0.4046;1.2523;
988.8000;0.4046;1.2593;
989.1000;0.4054;1.2570;
989.4000;0.4005;1.2476;
989.7000;0.4046;1.2523;
990.0000;0.4062;1.2640;
990.3000;0.4062;1.2570;
990.6000;0.4062;1.2570;
990.9000;0.4037;1.2476;
991.2000;0.4037;1.2499;
991.5000;0.4046;1.2523;
991.8000;0.4046;1.2429;
992.1000;0.4070;1.2429;
992.4000;0.4070;1.2382;
992.7000;0.4103;1.2523;
993.0000;0.4078;1.2499;
993.3000;0.4062;1.2476;
993.6000;0.4054;1.2382;
993.9000;0.4070;1.2382;
994.2000;0.4046;1.2289;
994.5000;0.4046;1.2265;
994.8000;0.4062;1.2265;
995.1000;0.4021;1.2172;
995.4000;0.4062;1.2289;
995.7000;0.4062;1.2242;
996.0000;0.4070;1.2289;
996.3000;0.3997;1.2055;
996.6000;0.4029;1.2078;
996.9000;0.4054;1.2242;
997.2000;0.4046;1.2195;
997.5000;0.4062;1.2195;
997.8000;0.4037;1.2172;
998.1000;0.4054;1.2242;
998.4000;0.4046;1.2382;
998.7000;0.4029;1.2382;
999.0000;0.4054;1.2336;
999.3000;0.4046;1.2219;
999.6000;0.4037;1.2289;
999.9000;0.4054;1.2336;
1000.2000;0.4005;1.2195;
1000.5000;0.4062;1.2265;
1000.8000;0.4021;1.2219;
1001.1000;0.4054;1.2359;
1001.4000;0.4037;1.2382;
1001.7000;0.4151;1.2593;
1002.0000;0.4021;1.2312;
1002.3000;0.4062;1.2429;
1002.6000;0.4037;1.2359;
1002.9000;0.4046;1.2406;
1003.2000;0.4037;1.2429;
1003.5000;0.4070;1.2499;
1003.8000;0.4046;1.2570;
1004.1000;0.4062;1.2570;
1004.4000;0.4037;1.2616;
1004.7000;0.4021;1.2570;
1005.0000;0.4062;1.2570;
1005.3000;0.4046;1.2523;
1005.6000;0.4054;1.2523;
1005.9000;0.4046;1.2476;
1006.2000;0.4037;1.2499;
1006.5000;0.4046;1.2593;
1006.8000;0.4078;1.2546;
1007.1000;0.4046;1.2453;
1007.4000;0.4029;1.2429;
1007.7000;0.4086;1.2593;
1008.0000;0.4070;1.2663;
1008.3000;0.4070;1.2733;
1008.6000;0.4062;1.2757;
1008.9000;0.4046;1.2780;
1009.2000;0.4046;1.2733;
1009.5000;0.4046;1.2663;
1009.8000;0.4021;1.2570;
1010.1000;0.4005;1.2499;
1010.4000;0.4021;1.2593;
1010.7000;0.3948;1.2406;
1011.0000;0.4029;1.2593;
1011.3000;0.4119;1.2851;
1011.6000;0.4021;1.2570;
1011.9000;0.4037;1.2523;
1012.2000;0.4046;1.2499;
1012.5000;0.4029;1.2570;
1012.8000;0.4046;1.2616;
1013.1000;0.4046;1.2593;
1013.4000;0.3980;1.2406;
1013.7000;0.4037;1.2546;
1014.0000;0.4054;1.2640;
1014.3000;0.4021;1.2687;
1014.6000;0.4046;1.2570;
1014.9000;0.4029;1.2406;
1015.2000;0.4046;1.2359;
1015.5000;0.4029;1.2336;
1015.8000;0.4046;1.2429;
1016.1000;0.4021;1.2429;
1016.4000;0.4070;1.2476;
1016.7000;0.4046;1.2453;
1017.0000;0.4078;1.2570;
1017.3000;0.4046;1.2570;
1017.6000;0.4054;1.2546;
1017.9000;0.4062;1.2499;
1018.2000;0.4013;1.2406;
1018.5000;0.4054;1.2640;
1018.8000;0.3989;1.2593;
1019.1000;0.4094;1.2804;
1019.4000;0.4054;1.2687;
1019.7000;0.4103;1.2827;
1020.0000;0.4070;1.2687;
1020.3000;0.4054;1.2687;
1020.6000;0.4037;1.2640;
1020.9000;0.4054;1.2687;
1021.2000;0.3997;1.2570;
1021.5000;0.4103;1.2874;
1021.8000;0.4037;1.2640;
1022.1000;0.4127;1.2804;
1022.4000;0.4013;1.2593;
1022.7000;0.4037;1.2616;
1023.0000;0.4037;1.2640;
1023.3000;0.4021;1.2640;
1023.6000;0.4021;1.2710;
1023.9000;0.4037;1.2640;
1024.2000;0.4119;1.2804;
1024.5000;0.4037;1.2546;
1024.8000;0.4005;1.2429;
1025.1000;0.4037;1.2453;
1025.4000;0.4037;1.2453;
1025.7000;0.4013;1.2359;
1026.0000;0.4062;1.2359;
1026.3000;0.4021;1.2312;
1026.6000;0.4046;1.2242;
1026.9000;0.4013;1.2055;
1027.2000;0.4037;1.2055;
1027.5000;0.4037;1.2101;
1027.8000;0.4037;1.2172;
1028.1000;0.4029;1.2289;
1028.4000;0.4013;1.2219;
1028.7000;0.4054;1.2312;
1029.0000;0.4029;1.2289;
1029.3000;0.4037;1.2382;
1029.6000;0.4054;1.2476;
1029.9000;0.4062;1.2546;
1030.2000;0.4046;1.2453;
1030.5000;0.4070;1.2570;
1030.8000;0.4103;1.2733;
1031.1000;0.4054;1.2663;
1031.4000;0.4151;1.2874;
1031.7000;0.4135;1.2827;
1032.0000;0.4029;1.2453;
1032.3000;0.4037;1.2523;
1032.6000;0.4078;1.2570;
1032.9000;0.4037;1.2453;
1033.2000;0.4054;1.2476;
1033.5000;0.4005;1.2382;
1033.8000;0.4046;1.2570;
1034.1000;0.3997;1.2523;
1034.4000;0.4037;1.2546;
1034.7000;0.4046;1.2499;
1035.0000;0.4037;1.2570;
1035.3000;0.4029;1.2593;
1035.6000;0.4021;1.2616;
1035.9000;0.4029;1.2733;
1036.2000;0.4054;1.2710;
1036.5000;0.4046;1.2593;
1036.8000;0.4021;1.2546;
1037.1000;0.4046;1.2616;
1037.4000;0.4054;1.2616;
1037.7000;0.4021;1.2593;
1038.0000;0.4037;1.2710;
1038.3000;0.4013;1.2616;
1038.6000;0.4037;1.2757;
1038.9000;0.4054;1.2663;
1039.2000;0.4021;1.2593;
1039.5000;0.4037;1.2687;
1039.8000;0.4037;1.2687;
1040.1000;0.4046;1.2687;
1040.4000;0.4046;1.2710;
1040.7000;0.4037;1.2616;
1041.0000;0.4054;1.2640;
1041.3000;0.4029;1.2593;
1041.6000;0.4013;1.2593;
1041.9000;0.4037;1.2616;
1042.2000;0.4062;1.2640;
1042.5000;0.4086;1.2663;
1042.8000;0.4054;1.2499;
1043.1000;0.4046;1.2429;
1043.4000;0.4037;1.2359;
1043.7000;0.4046;1.2265;
1044.0000;0.4062;1.2359;
1044.3000;0.4029;1.2429;
1044.6000;0.4094;1.2546;
1044.9000;0.4054;1.2523;
1045.2000;0.4013;1.2429;
1045.5000;0.4054;1.2523;
1045.8000;0.4054;1.2429;
1046.1000;0.4037;1.2406;
1046.4000;0.4119;1.2570;
1046.7000;0.4135;1.2546;
1047.0000;0.3989;1.2312;
1047.3000;0.4029;1.2453;
1047.6000;0.4078;1.2546;
1047.9000;0.4013;1.2382;
1048.2000;0.4029;1.2429;
1048.5000;0.4021;1.2336;
1048.8000;0.4054;1.2476;
1049.1000;0.4013;1.2429;
1049.4000;0.4029;1.2453;
1049.7000;0.4037;1.2476;
1050.0000;0.4013;1.2570;
1050.3000;0.4037;1.2663;
1050.6000;0.4037;1.2593;
1050.9000;0.4029;1.2616;
1051.2000;0.4054;1.2663;
1051.5000;0.4046;1.2640;
1051.8000;0.4070;1.2687;
1052.1000;0.4029;1.2593;
1052.4000;0.4078;1.2663;
1052.7000;0.4046;1.2593;
1053.0000;0.4062;1.2523;
1053.3000;0.4046;1.2406;
1053.6000;0.4029;1.2406;
1053.9000;0.4021;1.2429;
1054.2000;0.4013;1.2382;
1054.5000;0.4062;1.2499;
1054.8000;0.4037;1.2453;
1055.1000;0.4070;1.2593;
1055.4000;0.4046;1.2429;
1055.7000;0.4062;1.2499;
1056.0000;0.4021;1.2453;
1056.3000;0.4054;1.2453;
1056.6000;0.4046;1.2429;
1056.9000;0.4046;1.2406;
1057.2000;0.4013;1.2429;
1057.5000;0.4062;1.2546;
1057.8000;0.4021;1.2476;
1058.1000;0.4054;1.2499;
1058.4000;0.4029;1.2406;
1058.7000;0.4029;1.2406;
1059.0000;0.4070;1.2640;
1059.3000;0.4046;1.2593;
1059.6000;0.4037;1.2546;
1059.9000;0.4070;1.2616;
1060.2000;0.4046;1.2570;
1060.5000;0.4013;1.2382;
1060.8000;0.4037;1.2359;
1061.1000;0.4046;1.2336;
1061.4000;0.4021;1.2265;
1061.7000;0.4054;1.2429;
1062.0000;0.4046;1.2476;
1062.3000;0.4037;1.2523;
1062.6000;0.4046;1.2499;
1062.9000;0.4054;1.2523;
1063.2000;0.4054;1.2453;
1063.5000;0.4037;1.2382;
1063.8000;0.4021;1.2312;
1064.1000;0.4054;1.2359;
1064.4000;0.4046;1.2289;
1064.7000;0.4037;1.2289;
1065.0000;0.4070;1.2382;
1065.3000;0.4046;1.2382;
1065.6000;0.3989;1.2289;
1065.9000;0.4086;1.2499;
1066.2000;0.4054;1.2429;
1066.5000;0.4119;1.2570;
1066.8000;0.4054;1.2499;
1067.1000;0.4037;1.2499;
1067.4000;0.3997;1.2406;
1067.7000;0.4062;1.2616;
1068.0000;0.4029;1.2593;
1068.3000;0.4037;1.2593;
1068.6000;0.4046;1.2640;
1068.9000;0.4021;1.2640;
1069.2000;0.4029;1.2640;
1069.5000;0.4037;1.2616;
1069.8000;0.4037;1.2499;
1070.1000;0.3980;1.2359;
1070.4000;0.4054;1.2382;
1070.7000;0.4005;1.2289;
1071.0000;0.4021;1.2499;
1071.3000;0.4046;1.2687;
1071.6000;0.3980;1.2523;
1071.9000;0.4094;1.2710;
1072.2000;0.4029;1.2546;
1072.5000;0.3956;1.2336;
1072.8000;0.4021;1.2570;
1073.1000;0.4054;1.2710;
1073.4000;0.4029;1.2640;
1073.7000;0.4029;1.2570;
1074.0000;0.4062;1.2733;
1074.3000;0.4029;1.2710;
1074.6000;0.4029;1.2663;
1074.9000;0.4029;1.2593;
1075.2000;0.4037;1.2593;
1075.5000;0.4054;1.2523;
1075.8000;0.4046;1.2499;
1076.1000;0.4062;1.2523;
1076.4000;0.4046;1.2476;
1076.7000;0.4054;1.2476;
1077.0000;0.4078;1.2593;
1077.3000;0.4062;1.2640;
1077.6000;0.4013;1.2593;
1077.9000;0.4029;1.2616;
1078.2000;0.4037;1.2593;
1078.5000;0.4013;1.2616;
1078.8000;0.4029;1.2687;
1079.1000;0.4029;1.2616;
1079.4000;0.4054;1.2523;
1079.7000;0.4005;1.2289;
1080.0000;0.4021;1.2429;
1080.3000;0.4029;1.2499;
1080.6000;0.4062;1.2523;
1080.9000;0.4078;1.2546;
1081.2000;0.4046;1.2546;
1081.5000;0.4103;1.2710;
1081.8000;0.4037;1.2382;
1082.1000;0.4029;1.2406;
1082.4000;0.4037;1.2406;
1082.7000;0.4029;1.2406;
1083.0000;0.4029;1.2546;
1083.3000;0.4037;1.2616;
1083.6000;0.4037;1.2593;
1083.9000;0.4037;1.2593;
1084.2000;0.4037;1.2616;
1084.5000;0.4037;1.2523;
1084.8000;0.4029;1.2499;
1085.1000;0.4037;1.2499;
1085.4000;0.4037;1.2476;
1085.7000;0.4029;1.2476;
1086.0000;0.4037;1.2546;
1086.3000;0.4046;1.2570;
1086.6000;0.4070;1.2687;
1086.9000;0.4046;1.2593;
1087.2000;0.4029;1.2476;
1087.5000;0.4029;1.2546;
1087.8000;0.4037;1.2593;
1088.1000;0.4070;1.2616;
1088.4000;0.4046;1.2546;
1088.7000;0.3989;1.2382;
1089.0000;0.4029;1.2406;
1089.3000;0.4029;1.2453;
1089.6000;0.4005;1.2359;
1089.9000;0.4046;1.2523;
1090.2000;0.4029;1.2523;
1090.5000;0.4021;1.2453;
1090.8000;0.4029;1.2523;
1091.1000;0.4037;1.2593;
1091.4000;0.4037;1.2640;
1091.7000;0.4037;1.2640;
1092.0000;0.4054;1.2757;
1092.3000;0.4046;1.2780;
1092.6000;0.3964;1.2570;
1092.9000;0.4037;1.2663;
1093.2000;0.4029;1.2640;
1093.5000;0.4029;1.2593;
1093.8000;0.4021;1.2523;
1094.1000;0.4021;1.2570;
1094.4000;0.4037;1.2710;
1094.7000;0.4021;1.2663;
1095.0000;0.4037;1.2640;
1095.3000;0.4013;1.2546;
1095.6000;0.4013;1.2453;
1095.9000;0.4021;1.2476;
1096.2000;0.4037;1.2593;
1096.5000;0.4054;1.2640;
1096.8000;0.4029;1.2616;
1097.1000;0.4029;1.2616;
1097.4000;0.4021;1.2570;
1097.7000;0.4029;1.2593;
1098.0000;0.4054;1.2593;
1098.3000;0.4029;1.2499;
1098.6000;0.4029;1.2406;
1098.9000;0.4078;1.2523;
1099.2000;0.4029;1.2382;
1099.5000;0.4013;1.2382;
1099.8000;0.4021;1.2429;
1100.1000;0.4037;1.2499;
1100.4000;0.4029;1.2546;
1100.7000;0.4086;1.2710;
1101.0000;0.4054;1.2640;
1101.3000;0.4062;1.2593;
1101.6000;0.4037;1.2523;
1101.9000;0.3997;1.2382;
1102.2000;0.4037;1.2523;
1102.5000;0.4029;1.2523;
1102.8000;0.4029;1.2570;
1103.1000;0.4013;1.2499;
1103.4000;0.4037;1.2570;
1103.7000;0.4029;1.2640;
1104.0000;0.4021;1.2616;
1104.3000;0.4029;1.2593;
1104.6000;0.4021;1.2523;
1104.9000;0.3989;1.2382;
1105.2000;0.4021;1.2429;
1105.5000;0.4070;1.2593;
1105.8000;0.4029;1.2499;
1106.1000;0.4046;1.2523;
1106.4000;0.4046;1.2453;
1106.7000;0.4021;1.2429;
1107.0000;0.4037;1.2523;
1107.3000;0.4037;1.2570;
1107.6000;0.4029;1.2570;
1107.9000;0.4029;1.2523;
1108.2000;0.4046;1.2499;
1108.5000;0.4029;1.2359;
1108.8000;0.4046;1.2336;
1109.1000;0.4046;1.2453;
1109.4000;0.4037;1.2382;
1109.7000;0.4037;1.2429;
1110.0000;0.4037;1.2429;
1110.3000;0.4029;1.2429;
1110.6000;0.4029;1.2406;
1110.9000;0.4046;1.2476;
1111.2000;0.4037;1.2499;
1111.5000;0.4046;1.2570;
1111.8000;0.4021;1.2593;
1112.1000;0.3972;1.2570;
1112.4000;0.3997;1.2546;
1112.7000;0.4062;1.2687;
1113.0000;0.4046;1.2663;
1113.3000;0.4029;1.2616;
1113.6000;0.4037;1.2546;
1113.9000;0.4037;1.2429;
1114.2000;0.3997;1.2312;
1114.5000;0.4046;1.2453;
1114.8000;0.4029;1.2429;
1115.1000;0.4046;1.2499;
1115.4000;0.4021;1.2546;
1115.7000;0.4037;1.2616;
1116.0000;0.4021;1.2593;
1116.3000;0.4046;1.2593;
1116.6000;0.4037;1.2687;
1116.9000;0.4054;1.2710;
1117.2000;0.4037;1.2663;
1117.5000;0.4103;1.2851;
1117.8000;0.4029;1.2640;
1118.1000;0.4037;1.2570;
1118.4000;0.4021;1.2499;
1118.7000;0.4013;1.2546;
1119.0000;0.4037;1.2640;
1119.3000;0.4037;1.2476;
1119.6000;0.4029;1.2406;
1119.9000;0.4037;1.2523;
1120.2000;0.4021;1.2593;
1120.5000;0.4029;1.2593;
1120.8000;0.4029;1.2570;
1121.1000;0.4037;1.2546;
1121.4000;0.4029;1.2593;
1121.7000;0.4029;1.2616;
1122.0000;0.4021;1.2499;
1122.3000;0.4021;1.2476;
1122.6000;0.4021;1.2499;
1122.9000;0.4037;1.2429;
1123.2000;0.4037;1.2453;
1123.5000;0.4046;1.2453;
1123.8000;0.4029;1.2406;
1124.1000;0.4021;1.2429;
1124.4000;0.4070;1.2499;
1124.7000;0.4013;1.2336;
1125.0000;0.4037;1.2429;
1125.3000;0.4013;1.2429;
1125.6000;0.4021;1.2570;
1125.9000;0.4021;1.2570;
1126.2000;0.4029;1.2593;
1126.5000;0.4037;1.2593;
1126.8000;0.4037;1.2663;
1127.1000;0.4021;1.2546;
1127.4000;0.4054;1.2616;
1127.7000;0.4046;1.2593;
1128.0000;0.4046;1.2593;
1128.3000;0.4005;1.2593;
1128.6000;0.4013;1.2570;
1128.9000;0.4029;1.2616;
1129.2000;0.4021;1.2570;
1129.5000;0.4021;1.2546;
1129.8000;0.4013;1.2476;
1130.1000;0.4046;1.2546;
1130.4000;0.3972;1.2406;
1130.7000;0.4037;1.2499;
1131.0000;0.4021;1.2453;
1131.3000;0.4013;1.2406;
1131.6000;0.4037;1.2476;
1131.9000;0.4054;1.2406;
1132.2000;0.4046;1.2499;
1132.5000;0.4021;1.2523;
1132.8000;0.4037;1.2546;
1133.1000;0.4046;1.2593;
1133.4000;0.4013;1.2453;
1133.7000;0.4029;1.2476;
1134.0000;0.4037;1.2523;
1134.3000;0.3980;1.2265;
1134.6000;0.4037;1.2336;
1134.9000;0.4013;1.2265;
1135.2000;0.4070;1.2406;
1135.5000;0.4037;1.2336;
1135.8000;0.4021;1.2242;
1136.1000;0.4029;1.2242;
1136.4000;0.4046;1.2429;
1136.7000;0.4054;1.2499;
1137.0000;0.4046;1.2476;
1137.3000;0.4029;1.2523;
1137.6000;0.3956;1.2406;
1137.9000;0.4037;1.2640;
1138.2000;0.4054;1.2663;
1138.5000;0.4037;1.2546;
1138.8000;0.4021;1.2570;
1139.1000;0.4062;1.2687;
1139.4000;0.4029;1.2570;
1139.7000;0.4029;1.2546;
1140.0000;0.4078;1.2570;
1140.3000;0.4029;1.2476;
1140.6000;0.4005;1.2453;
1140.9000;0.3997;1.2453;
1141.2000;0.4021;1.2570;
1141.5000;0.4021;1.2570;
1141.8000;0.4029;1.2687;
1142.1000;0.4029;1.2710;
1142.4000;0.4005;1.2710;
1142.7000;0.4029;1.2710;
1143.0000;0.4046;1.2757;
1143.3000;0.4029;1.2804;
1143.6000;0.4029;1.2733;
1143.9000;0.4021;1.2616;
1144.2000;0.4021;1.2593;
1144.5000;0.4021;1.2453;
1144.8000;0.4029;1.2453;
1145.1000;0.4046;1.2523;
1145.4000;0.4046;1.2523;
1145.7000;0.4029;1.2570;
1146.0000;0.4037;1.2476;
1146.3000;0.4005;1.2406;
1146.6000;0.4029;1.2382;
1146.9000;0.4046;1.2336;
1147.2000;0.4021;1.2265;
1147.5000;0.4029;1.2406;
1147.8000;0.4029;1.2336;
1148.1000;0.4037;1.2312;
1148.4000;0.4054;1.2406;
1148.7000;0.4037;1.2429;
1149.0000;0.4029;1.2429;
1149.3000;0.4046;1.2546;
1149.6000;0.4021;1.2453;
1149.9000;0.4037;1.2406;
1150.2000;0.4021;1.2265;
1150.5000;0.4054;1.2476;
1150.8000;0.4086;1.2616;
1151.1000;0.4005;1.2312;
1151.4000;0.3997;1.2312;
1151.7000;0.4029;1.2476;
1152.0000;0.4021;1.2546;
1152.3000;0.4013;1.2546;
1152.6000;0.4037;1.2570;
1152.9000;0.4037;1.2429;
1153.2000;0.4029;1.2382;
1153.5000;0.4013;1.2289;
1153.8000;0.4021;1.2336;
1154.1000;0.4021;1.2289;
1154.4000;0.3989;1.2242;
1154.7000;0.4029;1.2382;
1155.0000;0.4021;1.2312;
1155.3000;0.4005;1.2289;
1155.6000;0.4005;1.2429;
1155.9000;0.4013;1.2546;
1156.2000;0.4037;1.2523;
1156.5000;0.4029;1.2499;
1156.8000;0.4111;1.2593;
1157.1000;0.4029;1.2312;
1157.4000;0.4046;1.2406;
1157.7000;0.4054;1.2429;
1158.0000;0.3989;1.2265;
1158.3000;0.4013;1.2289;
1158.6000;0.4046;1.2312;
1158.9000;0.4021;1.2312;
1159.2000;0.4029;1.2406;
1159.5000;0.4037;1.2453;
1159.8000;0.4005;1.2359;
1160.1000;0.3997;1.2359;
1160.4000;0.4021;1.2453;
1160.7000;0.4054;1.2570;
1161.0000;0.4005;1.2429;
1161.3000;0.4021;1.2429;
1161.6000;0.4029;1.2382;
1161.9000;0.4021;1.2453;
1162.2000;0.4021;1.2453;
1162.5000;0.3964;1.2265;
1162.8000;0.4029;1.2382;
1163.1000;0.4046;1.2570;
1163.4000;0.4029;1.2616;
1163.7000;0.4078;1.2616;
1164.0000;0.4037;1.2523;
1164.3000;0.4005;1.2523;
1164.6000;0.4046;1.2640;
1164.9000;0.3972;1.2476;
1165.2000;0.4013;1.2640;
1165.5000;0.3980;1.2476;
1165.8000;0.4029;1.2640;
1166.1000;0.4046;1.2593;
1166.4000;0.4005;1.2593;
1166.7000;0.3997;1.2476;
1167.0000;0.4021;1.2523;
1167.3000;0.4037;1.2593;
1167.6000;0.4005;1.2499;
1167.9000;0.4037;1.2593;
1168.2000;0.4013;1.2523;
1168.5000;0.4037;1.2546;
1168.8000;0.4021;1.2453;
1169.1000;0.4029;1.2476;
1169.4000;0.4021;1.2429;
1169.7000;0.4021;1.2570;
1170.0000;0.4013;1.2593;
1170.3000;0.4021;1.2640;
1170.6000;0.4021;1.2570;
1170.9000;0.4054;1.2616;
1171.2000;0.4029;1.2593;
1171.5000;0.4086;1.2733;
1171.8000;0.3980;1.2570;
1172.1000;0.4013;1.2593;
1172.4000;0.4029;1.2593;
1172.7000;0.4021;1.2546;
1173.0000;0.4037;1.2546;
1173.3000;0.4078;1.2523;
1173.6000;0.4037;1.2453;
1173.9000;0.4037;1.2429;
1174.2000;0.4013;1.2429;
1174.5000;0.4037;1.2453;
1174.8000;0.4029;1.2406;
1175.1000;0.4013;1.2336;
1175.4000;0.4021;1.2406;
1175.7000;0.4029;1.2359;
1176.0000;0.4029;1.2336;
1176.3000;0.4029;1.2359;
1176.6000;0.4029;1.2429;
1176.9000;0.4013;1.2453;
1177.2000;0.4005;1.2406;
1177.5000;0.4037;1.2570;
1177.8000;0.4021;1.2499;
1178.1000;0.4029;1.2546;
1178.4000;0.4029;1.2523;
1178.7000;0.4013;1.2499;
1179.0000;0.4054;1.2687;
1179.3000;0.4037;1.2640;
1179.6000;0.4029;1.2616;
1179.9000;0.4005;1.2546;
1180.2000;0.4037;1.2499;
1180.5000;0.4029;1.2429;
1180.8000;0.4005;1.2336;
1181.1000;0.4029;1.2265;
1181.4000;0.4046;1.2336;
1181.7000;0.4021;1.2359;
1182.0000;0.4021;1.2429;
1182.3000;0.4021;1.2499;
1182.6000;0.4037;1.2476;
1182.9000;0.4078;1.2593;
1183.2000;0.4037;1.2523;
1183.5000;0.4103;1.2523;
1183.8000;0.4037;1.2336;
1184.1000;0.4070;1.2453;
1184.4000;0.4037;1.2336;
1184.7000;0.4013;1.2219;
1185.0000;0.4103;1.2499;
1185.3000;0.4021;1.2265;
1185.6000;0.4029;1.2219;
1185.9000;0.4037;1.2219;
1186.2000;0.4005;1.2195;
1186.5000;0.4021;1.2289;
1186.8000;0.4029;1.2336;
1187.1000;0.4029;1.2359;
1187.4000;0.4013;1.2289;
1187.7000;0.4029;1.2289;
1188.0000;0.4062;1.2406;
1188.3000;0.4029;1.2359;
1188.6000;0.3948;1.2312;
1188.9000;0.4021;1.2570;
1189.2000;0.4037;1.2523;
1189.5000;0.3972;1.2265;
1189.8000;0.3997;1.2242;
1190.1000;0.4029;1.2289;
1190.4000;0.4029;1.2242;
1190.7000;0.3997;1.2219;
1191.0000;0.4013;1.2265;
1191.3000;0.4021;1.2312;
1191.6000;0.3997;1.2289;
1191.9000;0.4005;1.2453;
1192.2000;0.4021;1.2546;
1192.5000;0.4037;1.2499;
1192.8000;0.4013;1.2382;
1193.1000;0.4037;1.2429;
1193.4000;0.4029;1.2359;
1193.7000;0.4029;1.2312;
1194.0000;0.4046;1.2406;
1194.3000;0.4021;1.2499;
1194.6000;0.4037;1.2523;
1194.9000;0.4013;1.2453;
1195.2000;0.4029;1.2523;
1195.5000;0.4013;1.2382;
1195.8000;0.4021;1.2453;
1196.1000;0.4029;1.2429;
1196.4000;0.4086;1.2546;
1196.7000;0.4054;1.2499;
1197.0000;0.4029;1.2476;
1197.3000;0.4037;1.2499;
1197.6000;0.4029;1.2499;
1197.9000;0.4029;1.2429;
1198.2000;0.4029;1.2406;
1198.5000;0.4078;1.2546;
1198.8000;0.3989;1.2336;
1199.1000;0.4029;1.2429;
1199.4000;0.4062;1.2382;
1199.7000;0.4029;1.2336;
1200.0000;0.4037;1.2289;
1200.3000;0.4021;1.2219;
1200.6000;0.4037;1.2289;
1200.9000;0.3989;1.2289;
1201.2000;0.4013;1.2429;
1201.5000;0.3997;1.2406;
1201.8000;0.4021;1.2429;
1202.1000;0.4021;1.2429;
1202.4000;0.4029;1.2359;
1202.7000;0.4013;1.2382;
1203.0000;0.4046;1.2429;
1203.3000;0.4037;1.2429;
1203.6000;0.4029;1.2406;
1203.9000;0.4046;1.2546;
1204.2000;0.4021;1.2523;
1204.5000;0.4046;1.2453;
1204.8000;0.4021;1.2312;
1205.1000;0.4029;1.2336;
1205.4000;0.4029;1.2312;
1205.7000;0.4037;1.2289;
1206.0000;0.4062;1.2312;
1206.3000;0.4021;1.2125;
1206.6000;0.4054;1.2195;
1206.9000;0.3980;1.1961;
1207.2000;0.4013;1.2172;
1207.5000;0.3956;1.2101;
1207.8000;0.3997;1.2195;
1208.1000;0.4021;1.2289;
1208.4000;0.4029;1.2312;
1208.7000;0.4005;1.2219;
1209.0000;0.4086;1.2336;
1209.3000;0.4029;1.2219;
1209.6000;0.3997;1.2148;
1209.9000;0.4029;1.2242;
1210.2000;0.4021;1.2289;
1210.5000;0.3997;1.2265;
1210.8000;0.4021;1.2312;
1211.1000;0.4005;1.2265;
1211.4000;0.4005;1.2265;
1211.7000;0.3972;1.2195;
1212.0000;0.3997;1.2336;
1212.3000;0.3997;1.2382;
1212.6000;0.4005;1.2546;
1212.9000;0.4013;1.2593;
1213.2000;0.4062;1.2687;
1213.5000;0.4029;1.2570;
1213.8000;0.4029;1.2663;
1214.1000;0.4005;1.2663;
1214.4000;0.4021;1.2687;
1214.7000;0.4037;1.2687;
1215.0000;0.4021;1.2593;
1215.3000;0.4037;1.2593;
1215.6000;0.4021;1.2546;
1215.9000;0.4021;1.2593;
1216.2000;0.4029;1.2593;
1216.5000;0.4046;1.2616;
1216.8000;0.4013;1.2593;
1217.1000;0.4029;1.2640;
1217.4000;0.4037;1.2616;
1217.7000;0.4029;1.2593;
1218.0000;0.4029;1.2616;
1218.3000;0.4070;1.2687;
1218.6000;0.4037;1.2663;
1218.9000;0.4046;1.2616;
1219.2000;0.4021;1.2546;
1219.5000;0.4054;1.2593;
1219.8000;0.4046;1.2593;
1220.1000;0.4021;1.2570;
1220.4000;0.4013;1.2593;
1220.7000;0.4029;1.2546;
1221.0000;0.4021;1.2546;
1221.3000;0.4037;1.2546;
1221.6000;0.4021;1.2570;
1221.9000;0.4021;1.2616;
1222.2000;0.4029;1.2640;
1222.5000;0.4029;1.2593;
1222.8000;0.3972;1.2406;
1223.1000;0.4037;1.2499;
1223.4000;0.4029;1.2546;
1223.7000;0.4021;1.2406;
1224.0000;0.4070;1.2499;
1224.3000;0.4021;1.2336;
1224.6000;0.4021;1.2359;
1224.9000;0.4021;1.2312;
1225.2000;0.4029;1.2265;
1225.5000;0.4021;1.2219;
1225.8000;0.4029;1.2219;
1226.1000;0.4070;1.2382;
1226.4000;0.4046;1.2359;
1226.7000;0.4013;1.2382;
1227.0000;0.3989;1.2406;
1227.3000;0.4021;1.2523;
1227.6000;0.4021;1.2570;
1227.9000;0.4029;1.2546;
1228.2000;0.4021;1.2570;
1228.5000;0.4005;1.2406;
1228.8000;0.4037;1.2476;
1229.1000;0.4021;1.2382;
1229.4000;0.4029;1.2429;
1229.7000;0.4046;1.2523;
1230.0000;0.3989;1.2359;
1230.3000;0.4013;1.2359;
1230.6000;0.4021;1.2382;
1230.9000;0.4021;1.2406;
1231.2000;0.4054;1.2523;
1231.5000;0.4029;1.2453;
1231.8000;0.4005;1.2429;
1232.1000;0.4013;1.2476;
1232.4000;0.4021;1.2476;
1232.7000;0.4037;1.2476;
1233.0000;0.3997;1.2429;
1233.3000;0.4021;1.2476;
1233.6000;0.4078;1.2687;
1233.9000;0.4029;1.2570;
1234.2000;0.4021;1.2640;
1234.5000;0.4037;1.2640;
1234.8000;0.4021;1.2499;
1235.1000;0.4013;1.2406;
1235.4000;0.4029;1.2453;
1235.7000;0.4062;1.2476;
1236.0000;0.4127;1.2593;
1236.3000;0.4029;1.2336;
1236.6000;0.4029;1.2336;
1236.9000;0.4005;1.2312;
1237.2000;0.4029;1.2382;
1237.5000;0.4013;1.2289;
1237.8000;0.4029;1.2265;
1238.1000;0.4029;1.2172;
1238.4000;0.4029;1.2312;
1238.7000;0.4013;1.2382;
1239.0000;0.4037;1.2429;
1239.3000;0.3997;1.2289;
1239.6000;0.3997;1.2265;
1239.9000;0.4013;1.2265;
1240.2000;0.4029;1.2382;
1240.5000;0.4021;1.2359;
1240.8000;0.4029;1.2336;
1241.1000;0.4037;1.2336;
1241.4000;0.4013;1.2406;
1241.7000;0.4037;1.2406;
1242.0000;0.4029;1.2312;
1242.3000;0.4037;1.2312;
1242.6000;0.4029;1.2382;
1242.9000;0.4005;1.2359;
1243.2000;0.4029;1.2312;
1243.5000;0.3972;1.2125;
1243.8000;0.4029;1.2242;
1244.1000;0.4037;1.2242;
1244.4000;0.4046;1.2265;
1244.7000;0.4021;1.2242;
1245.0000;0.4013;1.2289;
1245.3000;0.4005;1.2289;
1245.6000;0.4029;1.2382;
1245.9000;0.4037;1.2406;
1246.2000;0.4029;1.2406;
1246.5000;0.4029;1.2476;
1246.8000;0.3997;1.2499;
1247.1000;0.4021;1.2546;
1247.4000;0.4021;1.2593;
1247.7000;0.3997;1.2593;
1248.0000;0.4005;1.2616;
1248.3000;0.4021;1.2640;
1248.6000;0.4021;1.2640;
1248.9000;0.4029;1.2640;
1249.2000;0.4021;1.2616;
1249.5000;0.4013;1.2546;
1249.8000;0.4013;1.2523;
1250.1000;0.4029;1.2546;
1250.4000;0.4029;1.2476;
1250.7000;0.4078;1.2546;
1251.0000;0.4078;1.2523;
1251.3000;0.4013;1.2359;
1251.6000;0.3997;1.2382;
1251.9000;0.4037;1.2406;
1252.2000;0.4029;1.2382;
1252.5000;0.4013;1.2359;
1252.8000;0.3915;1.2055;
1253.1000;0.4037;1.2382;
1253.4000;0.4021;1.2382;
1253.7000;0.4013;1.2406;
1254.0000;0.4037;1.2453;
1254.3000;0.4029;1.2406;
1254.6000;0.4086;1.2453;
1254.9000;0.4029;1.2336;
1255.2000;0.4021;1.2429;
1255.5000;0.4029;1.2476;
1255.8000;0.4037;1.2429;
1256.1000;0.4046;1.2523;
1256.4000;0.4037;1.2406;
1256.7000;0.4070;1.2382;
1257.0000;0.3980;1.2172;
1257.3000;0.4005;1.2219;
1257.6000;0.3980;1.2125;
1257.9000;0.4021;1.2172;
1258.2000;0.4046;1.2289;
1258.5000;0.3997;1.2172;
1258.8000;0.3997;1.2172;
1259.1000;0.3997;1.2172;
1259.4000;0.4029;1.2265;
1259.7000;0.4013;1.2312;
1260.0000;0.4037;1.2336;
1260.3000;0.4029;1.2289;
1260.6000;0.4037;1.2406;
1260.9000;0.4037;1.2429;
1261.2000;0.4021;1.2382;
1261.5000;0.4029;1.2476;
1261.8000;0.4005;1.2476;
1262.1000;0.4029;1.2499;
1262.4000;0.4021;1.2546;
1262.7000;0.4021;1.2523;
1263.0000;0.4029;1.2382;
1263.3000;0.3980;1.2265;
1263.6000;0.4021;1.2406;
1263.9000;0.4005;1.2476;
1264.2000;0.4021;1.2476;
1264.5000;0.4021;1.2476;
1264.8000;0.3972;1.2453;
1265.1000;0.4021;1.2593;
1265.4000;0.4070;1.2804;
1265.7000;0.4054;1.2780;
1266.0000;0.4046;1.2733;
1266.3000;0.4029;1.2640;
1266.6000;0.4013;1.2616;
1266.9000;0.4037;1.2616;
1267.2000;0.4037;1.2570;
1267.5000;0.3980;1.2476;
1267.8000;0.4037;1.2616;
1268.1000;0.4029;1.2640;
1268.4000;0.4029;1.2710;
1268.7000;0.4013;1.2733;
1269.0000;0.4029;1.2804;
1269.3000;0.4062;1.2851;
1269.6000;0.4013;1.2663;
1269.9000;0.4029;1.2710;
1270.2000;0.4029;1.2687;
1270.5000;0.4013;1.2687;
1270.8000;0.4029;1.2780;
1271.1000;0.4021;1.2804;
1271.4000;0.4021;1.2851;
1271.7000;0.4037;1.2874;
1272.0000;0.4046;1.2851;
1272.3000;0.4054;1.2827;
1272.6000;0.4021;1.2827;
1272.9000;0.3940;1.2640;
1273.2000;0.3972;1.2687;
1273.5000;0.4013;1.2663;
1273.8000;0.3989;1.2546;
1274.1000;0.3997;1.2593;
1274.4000;0.4013;1.2616;
1274.7000;0.4029;1.2640;
1275.0000;0.4029;1.2570;
1275.3000;0.4029;1.2523;
1275.6000;0.4021;1.2616;
1275.9000;0.4021;1.2663;
1276.2000;0.4046;1.2710;
1276.5000;0.4029;1.2546;
1276.8000;0.4021;1.2523;
1277.1000;0.3997;1.2453;
1277.4000;0.4103;1.2616;
1277.7000;0.4021;1.2382;
1278.0000;0.4070;1.2570;
1278.3000;0.4029;1.2546;
1278.6000;0.4005;1.2546;
1278.9000;0.4029;1.2570;
1279.2000;0.4013;1.2570;
1279.5000;0.4062;1.2687;
1279.8000;0.4029;1.2663;
1280.1000;0.3989;1.2640;
1280.4000;0.4021;1.2733;
1280.7000;0.4013;1.2757;
1281.0000;0.4029;1.2780;
1281.3000;0.4021;1.2827;
1281.6000;0.4078;1.2874;
1281.9000;0.4021;1.2804;
1282.2000;0.4037;1.2757;
1282.5000;0.4054;1.2710;
1282.8000;0.4046;1.2593;
1283.1000;0.4021;1.2523;
1283.4000;0.4013;1.2593;
1283.7000;0.4021;1.2546;
1284.0000;0.4013;1.2546;
1284.3000;0.4021;1.2570;
1284.6000;0.4029;1.2570;
1284.9000;0.3964;1.2429;
1285.2000;0.4013;1.2476;
1285.5000;0.4029;1.2476;
1285.8000;0.4021;1.2453;
1286.1000;0.4037;1.2499;
1286.4000;0.4037;1.2476;
1286.7000;0.4029;1.2453;
1287.0000;0.4021;1.2382;
1287.3000;0.4037;1.2476;
1287.6000;0.4086;1.2593;
1287.9000;0.4013;1.2453;
1288.2000;0.4013;1.2453;
1288.5000;0.3997;1.2476;
1288.8000;0.4029;1.2570;
1289.1000;0.4005;1.2593;
1289.4000;0.4013;1.2616;
1289.7000;0.4037;1.2663;
1290.0000;0.4021;1.2687;
1290.3000;0.4013;1.2640;
1290.6000;0.4021;1.2593;
1290.9000;0.3989;1.2476;
1291.2000;0.4021;1.2523;
1291.5000;0.4021;1.2546;
1291.8000;0.4013;1.2499;
1292.1000;0.4037;1.2546;
1292.4000;0.4037;1.2570;
1292.7000;0.4029;1.2570;
1293.0000;0.4021;1.2616;
1293.3000;0.4086;1.2733;
1293.6000;0.4005;1.2523;
1293.9000;0.4029;1.2523;
1294.2000;0.4005;1.2546;
1294.5000;0.4013;1.2523;
1294.8000;0.3997;1.2429;
1295.1000;0.4151;1.2897;
1295.4000;0.4046;1.2640;
1295.7000;0.3980;1.2546;
1296.0000;0.4054;1.2710;
1296.3000;0.4005;1.2710;
1296.6000;0.4021;1.2710;
1296.9000;0.4054;1.2710;
1297.2000;0.4046;1.2710;
1297.5000;0.4029;1.2710;
1297.8000;0.4029;1.2663;
1298.1000;0.4005;1.2523;
1298.4000;0.4013;1.2570;
1298.7000;0.4029;1.2663;
1299.0000;0.4054;1.2780;
1299.3000;0.4037;1.2710;
1299.6000;0.4029;1.2570;
1299.9000;0.4029;1.2453;
1300.2000;0.4046;1.2523;
1300.5000;0.4070;1.2453;
1300.8000;0.4046;1.2382;
1301.1000;0.4029;1.2406;
1301.4000;0.4037;1.2476;
1301.7000;0.4046;1.2476;
1302.0000;0.4021;1.2429;
1302.3000;0.4013;1.2406;
1302.6000;0.4070;1.2593;
1302.9000;0.4029;1.2523;
1303.2000;0.4005;1.2429;
1303.5000;0.4013;1.2476;
1303.8000;0.4005;1.2523;
1304.1000;0.4005;1.2570;
1304.4000;0.4021;1.2523;
1304.7000;0.4013;1.2499;
1305.0000;0.4005;1.2523;
1305.3000;0.4037;1.2616;
1305.6000;0.4054;1.2570;
1305.9000;0.4013;1.2476;
1306.2000;0.4046;1.2523;
1306.5000;0.4005;1.2429;
1306.8000;0.4046;1.2523;
1307.1000;0.4021;1.2429;
1307.4000;0.4037;1.2453;
1307.7000;0.4062;1.2616;
1308.0000;0.4029;1.2546;
1308.3000;0.4021;1.2476;
1308.6000;0.4013;1.2453;
1308.9000;0.3980;1.2453;
1309.2000;0.4029;1.2476;
1309.5000;0.4029;1.2429;
1309.8000;0.4029;1.2406;
1310.1000;0.4013;1.2312;
1310.4000;0.3989;1.2359;
1310.7000;0.4029;1.2499;
1311.0000;0.4005;1.2523;
1311.3000;0.4021;1.2546;
1311.6000;0.4005;1.2499;
1311.9000;0.3940;1.2265;
1312.2000;0.4021;1.2453;
1312.5000;0.4054;1.2570;
1312.8000;0.4054;1.2663;
1313.1000;0.4046;1.2710;
1313.4000;0.3964;1.2546;
1313.7000;0.4029;1.2616;
1314.0000;0.4046;1.2570;
1314.3000;0.4054;1.2570;
1314.6000;0.4037;1.2499;
1314.9000;0.4013;1.2476;
1315.2000;0.4037;1.2593;
1315.5000;0.4021;1.2640;
1315.8000;0.4029;1.2593;
1316.1000;0.4054;1.2546;
1316.4000;0.4013;1.2453;
1316.7000;0.4021;1.2593;
1317.0000;0.4005;1.2640;
1317.3000;0.4037;1.2687;
1317.6000;0.4078;1.2687;
1317.9000;0.4021;1.2406;
1318.2000;0.4013;1.2429;
1318.5000;0.4021;1.2429;
1318.8000;0.3997;1.2382;
1319.1000;0.4078;1.2570;
1319.4000;0.4029;1.2523;
1319.7000;0.3997;1.2476;
1320.0000;0.3972;1.2359;
1320.3000;0.3989;1.2429;
1320.6000;0.3989;1.2359;
1320.9000;0.4062;1.2523;
1321.2000;0.4005;1.2406;
1321.5000;0.4046;1.2429;
1321.8000;0.4021;1.2429;
1322.1000;0.4013;1.2359;
1322.4000;0.3997;1.2289;
1322.7000;0.3997;1.2406;
1323.0000;0.4005;1.2429;
1323.3000;0.4029;1.2476;
1323.6000;0.3972;1.2382;
1323.9000;0.4013;1.2523;
1324.2000;0.4037;1.2593;
1324.5000;0.3997;1.2476;
1324.8000;0.4046;1.2476;
1325.1000;0.4021;1.2429;
1325.4000;0.4013;1.2453;
1325.7000;0.4029;1.2406;
1326.0000;0.4046;1.2499;
1326.3000;0.4005;1.2359;
1326.6000;0.4021;1.2406;
1326.9000;0.4021;1.2499;
1327.2000;0.4013;1.2499;
1327.5000;0.4029;1.2453;
1327.8000;0.4029;1.2523;
1328.1000;0.4037;1.2499;
1328.4000;0.4046;1.2499;
1328.7000;0.4013;1.2476;
1329.0000;0.4021;1.2499;
1329.3000;0.4021;1.2476;
1329.6000;0.4005;1.2312;
1329.9000;0.4029;1.2336;
1330.2000;0.4029;1.2382;
1330.5000;0.3997;1.2359;
1330.8000;0.4037;1.2429;
1331.1000;0.4029;1.2406;
1331.4000;0.4013;1.2336;
1331.7000;0.4021;1.2336;
1332.0000;0.4029;1.2429;
1332.3000;0.4021;1.2429;
1332.6000;0.4037;1.2499;
1332.9000;0.4029;1.2429;
1333.2000;0.4021;1.2476;
1333.5000;0.4005;1.2406;
1333.8000;0.4013;1.2406;
1334.1000;0.4021;1.2499;
1334.4000;0.4005;1.2476;
1334.7000;0.4021;1.2593;
1335.0000;0.4005;1.2546;
1335.3000;0.4013;1.2523;
1335.6000;0.3997;1.2382;
1335.9000;0.4005;1.2476;
1336.2000;0.4029;1.2570;
1336.5000;0.4029;1.2616;
1336.8000;0.4021;1.2523;
1337.1000;0.4029;1.2570;
1337.4000;0.3940;1.2265;
1337.7000;0.4029;1.2453;
1338.0000;0.4029;1.2453;
1338.3000;0.4005;1.2359;
1338.6000;0.4029;1.2429;
1338.9000;0.4013;1.2476;
1339.2000;0.4021;1.2429;
1339.5000;0.4029;1.2429;
1339.8000;0.4037;1.2406;
1340.1000;0.4021;1.2382;
1340.4000;0.4029;1.2382;
1340.7000;0.4005;1.2406;
1341.0000;0.4029;1.2406;
1341.3000;0.4021;1.2406;
1341.6000;0.3997;1.2382;
1341.9000;0.4021;1.2453;
1342.2000;0.4029;1.2476;
1342.5000;0.4029;1.2499;
1342.8000;0.4005;1.2499;
1343.1000;0.4062;1.2499;
1343.4000;0.4021;1.2453;
1343.7000;0.4029;1.2453;
1344.0000;0.4046;1.2523;
1344.3000;0.3997;1.2453;
1344.6000;0.4013;1.2476;
1344.9000;0.4005;1.2406;
1345.2000;0.3997;1.2499;
1345.5000;0.4013;1.2593;
1345.8000;0.3989;1.2523;
1346.1000;0.4062;1.2663;
1346.4000;0.4013;1.2593;
1346.7000;0.4005;1.2546;
1347.0000;0.4013;1.2499;
1347.3000;0.4005;1.2359;
1347.6000;0.3972;1.2242;
1347.9000;0.4021;1.2359;
1348.2000;0.4021;1.2359;
1348.5000;0.4029;1.2453;
1348.8000;0.4013;1.2499;
1349.1000;0.4013;1.2523;
1349.4000;0.4029;1.2499;
1349.7000;0.3972;1.2289;
1350.0000;0.4070;1.2406;
1350.3000;0.4021;1.2265;
1350.6000;0.4046;1.2406;
1350.9000;0.4013;1.2429;
1351.2000;0.4021;1.2476;
1351.5000;0.4021;1.2499;
1351.8000;0.4005;1.2476;
1352.1000;0.4111;1.2780;
1352.4000;0.4021;1.2499;
1352.7000;0.4046;1.2593;
1353.0000;0.4021;1.2570;
1353.3000;0.4021;1.2640;
1353.6000;0.4062;1.2804;
1353.9000;0.4029;1.2757;
1354.2000;0.4037;1.2804;
1354.5000;0.4021;1.2780;
1354.8000;0.4029;1.2780;
1355.1000;0.4029;1.2780;
1355.4000;0.4005;1.2757;
1355.7000;0.4037;1.2804;
1356.0000;0.4005;1.2733;
1356.3000;0.4013;1.2757;
1356.6000;0.4046;1.2780;
1356.9000;0.4013;1.2710;
1357.2000;0.4013;1.2827;
1357.5000;0.4078;1.2921;
1357.8000;0.4046;1.2780;
1358.1000;0.4029;1.2804;
1358.4000;0.4013;1.2757;
1358.7000;0.4005;1.2663;
1359.0000;0.4005;1.2733;
1359.3000;0.4046;1.2827;
1359.6000;0.4013;1.2804;
1359.9000;0.4021;1.2804;
1360.2000;0.4037;1.2851;
1360.5000;0.4029;1.2757;
1360.8000;0.3964;1.2616;
1361.1000;0.4046;1.2710;
1361.4000;0.4054;1.2827;
1361.7000;0.3997;1.2757;
1362.0000;0.4013;1.2757;
1362.3000;0.4037;1.2757;
1362.6000;0.4029;1.2710;
1362.9000;0.4005;1.2570;
1363.2000;0.4037;1.2570;
1363.5000;0.4005;1.2523;
1363.8000;0.4013;1.2570;
1364.1000;0.4029;1.2546;
1364.4000;0.4037;1.2499;
1364.7000;0.4005;1.2476;
1365.0000;0.4094;1.2733;
1365.3000;0.4021;1.2546;
1365.6000;0.4013;1.2546;
1365.9000;0.4029;1.2523;
1366.2000;0.3997;1.2570;
1366.5000;0.4005;1.2570;
1366.8000;0.4021;1.2616;
1367.1000;0.3842;1.2172;
1367.4000;0.3997;1.2546;
1367.7000;0.4013;1.2616;
1368.0000;0.4054;1.2710;
1368.3000;0.4013;1.2616;
1368.6000;0.4005;1.2523;
1368.9000;0.4054;1.2593;
1369.2000;0.4013;1.2499;
1369.5000;0.4021;1.2523;
1369.8000;0.3948;1.2289;
1370.1000;0.3940;1.2265;
1370.4000;0.4029;1.2476;
1370.7000;0.4029;1.2546;
1371.0000;0.4013;1.2453;
1371.3000;0.4021;1.2499;
1371.6000;0.4021;1.2570;
1371.9000;0.4013;1.2593;
1372.2000;0.3956;1.2476;
1372.5000;0.4029;1.2546;
1372.8000;0.4029;1.2546;
1373.1000;0.4029;1.2640;
1373.4000;0.4021;1.2640;
1373.7000;0.4046;1.2733;
1374.0000;0.4013;1.2757;
1374.3000;0.4037;1.2874;
1374.6000;0.4054;1.2874;
1374.9000;0.3989;1.2780;
1375.2000;0.4029;1.2851;
1375.5000;0.4021;1.2804;
1375.8000;0.4021;1.2780;
1376.1000;0.4021;1.2710;
1376.4000;0.4013;1.2687;
1376.7000;0.4013;1.2640;
1377.0000;0.4021;1.2616;
1377.3000;0.4013;1.2687;
1377.6000;0.4013;1.2733;
1377.9000;0.4021;1.2757;
1378.2000;0.4013;1.2780;
1378.5000;0.4013;1.2733;
1378.8000;0.4037;1.2780;
1379.1000;0.4029;1.2780;
1379.4000;0.4029;1.2851;
1379.7000;0.4005;1.2757;
1380.0000;0.3915;1.2499;
1380.3000;0.4029;1.2733;
1380.6000;0.4029;1.2616;
1380.9000;0.4029;1.2593;
1381.2000;0.4029;1.2640;
1381.5000;0.4029;1.2687;
1381.8000;0.4005;1.2570;
1382.1000;0.4029;1.2616;
1382.4000;0.3997;1.2499;
1382.7000;0.4037;1.2593;
1383.0000;0.4046;1.2593;
1383.3000;0.4021;1.2406;
1383.6000;0.4029;1.2382;
1383.9000;0.4021;1.2219;
1384.2000;0.4029;1.2195;
1384.5000;0.4021;1.2148;
1384.8000;0.4005;1.2008;
1385.1000;0.4021;1.2055;
1385.4000;0.4029;1.2101;
1385.7000;0.3997;1.2148;
1386.0000;0.4021;1.2195;
1386.3000;0.4005;1.2195;
1386.6000;0.4029;1.2195;
1386.9000;0.4013;1.2265;
1387.2000;0.4013;1.2219;
1387.5000;0.4013;1.2125;
1387.8000;0.4013;1.1961;
1388.1000;0.4029;1.2008;
1388.4000;0.4021;1.1961;
1388.7000;0.4013;1.1961;
1389.0000;0.4021;1.2055;
1389.3000;0.4070;1.2195;
1389.6000;0.4046;1.2195;
1389.9000;0.4021;1.2078;
1390.2000;0.4029;1.2101;
1390.5000;0.4029;1.2031;
1390.8000;0.4013;1.2008;
1391.1000;0.4021;1.2031;
1391.4000;0.4037;1.2101;
1391.7000;0.4021;1.2078;
1392.0000;0.4005;1.2031;
1392.3000;0.4021;1.2125;
1392.6000;0.4005;1.2055;
1392.9000;0.3997;1.2078;
1393.2000;0.4013;1.2172;
1393.5000;0.4086;1.2406;
1393.8000;0.4037;1.2242;
1394.1000;0.4005;1.2195;
1394.4000;0.4013;1.2172;
1394.7000;0.4021;1.2242;
1395.0000;0.4037;1.2265;
1395.3000;0.4029;1.2359;
1395.6000;0.3989;1.2382;
1395.9000;0.4021;1.2476;
1396.2000;0.4021;1.2476;
1396.5000;0.4013;1.2453;
1396.8000;0.4013;1.2499;
1397.1000;0.4037;1.2523;
1397.4000;0.3972;1.2406;
1397.7000;0.4021;1.2523;
1398.0000;0.4005;1.2499;
1398.3000;0.4005;1.2499;
1398.6000;0.4021;1.2523;
1398.9000;0.4021;1.2453;
1399.2000;0.4013;1.2499;
1399.5000;0.4029;1.2546;
1399.8000;0.4029;1.2523;
