time/ms;Fluo/V;P700 deltaI/I x10³;
-199.8000;0.5535;1.6385;
-199.5000;0.5543;1.6385;
-199.2000;0.5543;1.6362;
-198.9000;0.5551;1.6385;
-198.6000;0.5527;1.6315;
-198.3000;0.5551;1.6315;
-198.0000;0.5560;1.6338;
-197.7000;0.5560;1.6315;
-197.4000;0.5551;1.6338;
-197.1000;0.5576;1.6338;
-196.8000;0.5568;1.6268;
-196.5000;0.5568;1.6291;
-196.2000;0.5535;1.6245;
-195.9000;0.5568;1.6268;
-195.6000;0.5568;1.6221;
-195.3000;0.5576;1.6291;
-195.0000;0.5535;1.6315;
-194.7000;0.5560;1.6268;
-194.4000;0.5576;1.6268;
-194.1000;0.5576;1.6291;
-193.8000;0.5568;1.6291;
-193.5000;0.5551;1.6221;
-193.2000;0.5543;1.6291;
-192.9000;0.5543;1.6315;
-192.6000;0.5551;1.6291;
-192.3000;0.5560;1.6245;
-192.0000;0.5535;1.6221;
-191.7000;0.5543;1.6245;
-191.4000;0.5551;1.6221;
-191.1000;0.5535;1.6057;
-190.8000;0.5576;1.6104;
-190.5000;0.5576;1.6081;
-190.2000;0.5568;1.6010;
-189.9000;0.5560;1.5940;
-189.6000;0.5568;1.6057;
-189.3000;0.5560;1.6174;
-189.0000;0.5568;1.6174;
-188.7000;0.5576;1.6221;
-188.4000;0.5568;1.6221;
-188.1000;0.5584;1.6338;
-187.8000;0.5560;1.6221;
-187.5000;0.5560;1.6315;
-187.2000;0.5568;1.6291;
-186.9000;0.5568;1.6291;
-186.6000;0.5568;1.6338;
-186.3000;0.5535;1.6338;
-186.0000;0.5576;1.6385;
-185.7000;0.5584;1.6432;
-185.4000;0.5568;1.6432;
-185.1000;0.5568;1.6455;
-184.8000;0.5584;1.6408;
-184.5000;0.5560;1.6338;
-184.2000;0.5576;1.6385;
-183.9000;0.5576;1.6432;
-183.6000;0.5568;1.6362;
-183.3000;0.5568;1.6362;
-183.0000;0.5560;1.6362;
-182.7000;0.5560;1.6362;
-182.4000;0.5551;1.6338;
-182.1000;0.5576;1.6408;
-181.8000;0.5568;1.6362;
-181.5000;0.5568;1.6385;
-181.2000;0.5576;1.6455;
-180.9000;0.5551;1.6315;
-180.6000;0.5560;1.6362;
-180.3000;0.5568;1.6338;
-180.0000;0.5576;1.6268;
-179.7000;0.5576;1.6245;
-179.4000;0.5576;1.6291;
-179.1000;0.5592;1.6245;
-178.8000;0.5576;1.6315;
-178.5000;0.5543;1.6315;
-178.2000;0.5503;1.6198;
-177.9000;0.5551;1.6338;
-177.6000;0.5568;1.6315;
-177.3000;0.5511;1.6198;
-177.0000;0.5560;1.6338;
-176.7000;0.5543;1.6315;
-176.4000;0.5568;1.6385;
-176.1000;0.5519;1.6315;
-175.8000;0.5560;1.6455;
-175.5000;0.5568;1.6549;
-175.2000;0.5576;1.6572;
-174.9000;0.5560;1.6549;
-174.6000;0.5560;1.6596;
-174.3000;0.5551;1.6572;
-174.0000;0.5584;1.6572;
-173.7000;0.5568;1.6525;
-173.4000;0.5551;1.6572;
-173.1000;0.5568;1.6572;
-172.8000;0.5560;1.6502;
-172.5000;0.5568;1.6525;
-172.2000;0.5535;1.6479;
-171.9000;0.5560;1.6572;
-171.6000;0.5568;1.6502;
-171.3000;0.5576;1.6479;
-171.0000;0.5568;1.6502;
-170.7000;0.5568;1.6525;
-170.4000;0.5560;1.6525;
-170.1000;0.5584;1.6596;
-169.8000;0.5568;1.6525;
-169.5000;0.5592;1.6666;
-169.2000;0.5576;1.6736;
-168.9000;0.5568;1.6853;
-168.6000;0.5576;1.6830;
-168.3000;0.5584;1.6877;
-168.0000;0.5543;1.6759;
-167.7000;0.5560;1.6736;
-167.4000;0.5584;1.6736;
-167.1000;0.5568;1.6736;
-166.8000;0.5568;1.6666;
-166.5000;0.5560;1.6642;
-166.2000;0.5592;1.6689;
-165.9000;0.5576;1.6666;
-165.6000;0.5551;1.6642;
-165.3000;0.5576;1.6619;
-165.0000;0.5560;1.6525;
-164.7000;0.5568;1.6455;
-164.4000;0.5576;1.6455;
-164.1000;0.5535;1.6479;
-163.8000;0.5576;1.6596;
-163.5000;0.5617;1.6759;
-163.2000;0.5551;1.6549;
-162.9000;0.5551;1.6549;
-162.6000;0.5551;1.6549;
-162.3000;0.5560;1.6572;
-162.0000;0.5568;1.6549;
-161.7000;0.5551;1.6549;
-161.4000;0.5527;1.6525;
-161.1000;0.5527;1.6549;
-160.8000;0.5560;1.6642;
-160.5000;0.5560;1.6596;
-160.2000;0.5543;1.6572;
-159.9000;0.5560;1.6572;
-159.6000;0.5584;1.6689;
-159.3000;0.5551;1.6713;
-159.0000;0.5568;1.6736;
-158.7000;0.5486;1.6525;
-158.4000;0.5560;1.6713;
-158.1000;0.5560;1.6642;
-157.8000;0.5551;1.6642;
-157.5000;0.5543;1.6572;
-157.2000;0.5551;1.6572;
-156.9000;0.5560;1.6642;
-156.6000;0.5543;1.6502;
-156.3000;0.5568;1.6572;
-156.0000;0.5560;1.6572;
-155.7000;0.5560;1.6689;
-155.4000;0.5600;1.6806;
-155.1000;0.5560;1.6713;
-154.8000;0.5560;1.6689;
-154.5000;0.5568;1.6689;
-154.2000;0.5551;1.6666;
-153.9000;0.5592;1.6642;
-153.6000;0.5568;1.6572;
-153.3000;0.5584;1.6619;
-153.0000;0.5551;1.6596;
-152.7000;0.5551;1.6596;
-152.4000;0.5551;1.6596;
-152.1000;0.5535;1.6525;
-151.8000;0.5551;1.6596;
-151.5000;0.5560;1.6502;
-151.2000;0.5560;1.6502;
-150.9000;0.5568;1.6525;
-150.6000;0.5560;1.6572;
-150.3000;0.5560;1.6619;
-150.0000;0.5608;1.6783;
-149.7000;0.5543;1.6572;
-149.4000;0.5625;1.6713;
-149.1000;0.5551;1.6619;
-148.8000;0.5576;1.6666;
-148.5000;0.5682;1.7017;
-148.2000;0.5543;1.6642;
-147.9000;0.5551;1.6666;
-147.6000;0.5543;1.6619;
-147.3000;0.5584;1.6619;
-147.0000;0.5576;1.6596;
-146.7000;0.5560;1.6596;
-146.4000;0.5535;1.6549;
-146.1000;0.5592;1.6666;
-145.8000;0.5568;1.6596;
-145.5000;0.5560;1.6502;
-145.2000;0.5576;1.6502;
-144.9000;0.5641;1.6713;
-144.6000;0.5568;1.6455;
-144.3000;0.5560;1.6479;
-144.0000;0.5576;1.6549;
-143.7000;0.5576;1.6572;
-143.4000;0.5584;1.6619;
-143.1000;0.5543;1.6549;
-142.8000;0.5576;1.6596;
-142.5000;0.5560;1.6479;
-142.2000;0.5617;1.6596;
-141.9000;0.5576;1.6362;
-141.6000;0.5576;1.6362;
-141.3000;0.5576;1.6432;
-141.0000;0.5568;1.6525;
-140.7000;0.5617;1.6549;
-140.4000;0.5576;1.6525;
-140.1000;0.5568;1.6525;
-139.8000;0.5551;1.6479;
-139.5000;0.5608;1.6619;
-139.2000;0.5625;1.6713;
-138.9000;0.5576;1.6525;
-138.6000;0.5576;1.6432;
-138.3000;0.5560;1.6432;
-138.0000;0.5560;1.6455;
-137.7000;0.5551;1.6502;
-137.4000;0.5576;1.6549;
-137.1000;0.5568;1.6572;
-136.8000;0.5551;1.6525;
-136.5000;0.5560;1.6479;
-136.2000;0.5576;1.6502;
-135.9000;0.5535;1.6525;
-135.6000;0.5568;1.6572;
-135.3000;0.5568;1.6713;
-135.0000;0.5584;1.6759;
-134.7000;0.5568;1.6689;
-134.4000;0.5592;1.6666;
-134.1000;0.5551;1.6572;
-133.8000;0.5568;1.6572;
-133.5000;0.5576;1.6596;
-133.2000;0.5551;1.6689;
-132.9000;0.5543;1.6596;
-132.6000;0.5584;1.6666;
-132.3000;0.5560;1.6619;
-132.0000;0.5568;1.6596;
-131.7000;0.5600;1.6596;
-131.4000;0.5576;1.6572;
-131.1000;0.5560;1.6596;
-130.8000;0.5568;1.6549;
-130.5000;0.5584;1.6572;
-130.2000;0.5568;1.6525;
-129.9000;0.5551;1.6455;
-129.6000;0.5511;1.6291;
-129.3000;0.5568;1.6385;
-129.0000;0.5568;1.6455;
-128.7000;0.5503;1.6362;
-128.4000;0.5576;1.6525;
-128.1000;0.5568;1.6455;
-127.8000;0.5503;1.6245;
-127.5000;0.5560;1.6362;
-127.2000;0.5576;1.6362;
-126.9000;0.5584;1.6385;
-126.6000;0.5560;1.6385;
-126.3000;0.5576;1.6432;
-126.0000;0.5560;1.6408;
-125.7000;0.5543;1.6408;
-125.4000;0.5568;1.6479;
-125.1000;0.5568;1.6455;
-124.8000;0.5527;1.6408;
-124.5000;0.5551;1.6455;
-124.2000;0.5584;1.6502;
-123.9000;0.5576;1.6502;
-123.6000;0.5551;1.6432;
-123.3000;0.5592;1.6549;
-123.0000;0.5560;1.6455;
-122.7000;0.5551;1.6455;
-122.4000;0.5535;1.6385;
-122.1000;0.5551;1.6479;
-121.8000;0.5503;1.6385;
-121.5000;0.5576;1.6408;
-121.2000;0.5568;1.6315;
-120.9000;0.5551;1.6338;
-120.6000;0.5568;1.6362;
-120.3000;0.5560;1.6502;
-120.0000;0.5535;1.6502;
-119.7000;0.5527;1.6502;
-119.4000;0.5568;1.6642;
-119.1000;0.5576;1.6666;
-118.8000;0.5568;1.6666;
-118.5000;0.5633;1.6806;
-118.2000;0.5560;1.6666;
-117.9000;0.5551;1.6619;
-117.6000;0.5551;1.6666;
-117.3000;0.5543;1.6642;
-117.0000;0.5560;1.6689;
-116.7000;0.5535;1.6619;
-116.4000;0.5560;1.6666;
-116.1000;0.5543;1.6642;
-115.8000;0.5568;1.6596;
-115.5000;0.5576;1.6525;
-115.2000;0.5495;1.6315;
-114.9000;0.5551;1.6455;
-114.6000;0.5543;1.6432;
-114.3000;0.5576;1.6479;
-114.0000;0.5576;1.6502;
-113.7000;0.5551;1.6502;
-113.4000;0.5560;1.6549;
-113.1000;0.5560;1.6525;
-112.8000;0.5535;1.6572;
-112.5000;0.5527;1.6572;
-112.2000;0.5535;1.6619;
-111.9000;0.5543;1.6619;
-111.6000;0.5543;1.6596;
-111.3000;0.5535;1.6596;
-111.0000;0.5551;1.6596;
-110.7000;0.5535;1.6525;
-110.4000;0.5535;1.6549;
-110.1000;0.5560;1.6525;
-109.8000;0.5503;1.6362;
-109.5000;0.5551;1.6479;
-109.2000;0.5551;1.6502;
-108.9000;0.5560;1.6502;
-108.6000;0.5584;1.6572;
-108.3000;0.5543;1.6479;
-108.0000;0.5576;1.6549;
-107.7000;0.5576;1.6619;
-107.4000;0.5608;1.6689;
-107.1000;0.5576;1.6572;
-106.8000;0.5584;1.6525;
-106.5000;0.5568;1.6455;
-106.2000;0.5568;1.6432;
-105.9000;0.5560;1.6502;
-105.6000;0.5560;1.6525;
-105.3000;0.5576;1.6525;
-105.0000;0.5551;1.6549;
-104.7000;0.5568;1.6572;
-104.4000;0.5584;1.6502;
-104.1000;0.5551;1.6385;
-103.8000;0.5560;1.6385;
-103.5000;0.5600;1.6479;
-103.2000;0.5617;1.6525;
-102.9000;0.5560;1.6385;
-102.6000;0.5608;1.6455;
-102.3000;0.5568;1.6338;
-102.0000;0.5543;1.6338;
-101.7000;0.5560;1.6432;
-101.4000;0.5568;1.6479;
-101.1000;0.5584;1.6385;
-100.8000;0.5543;1.6221;
-100.5000;0.5551;1.6174;
-100.2000;0.5576;1.6291;
-99.9000;0.5592;1.6455;
-99.6000;0.5560;1.6315;
-99.3000;0.5560;1.6291;
-99.0000;0.5560;1.6338;
-98.7000;0.5551;1.6291;
-98.4000;0.5568;1.6362;
-98.1000;0.5535;1.6362;
-97.8000;0.5551;1.6315;
-97.5000;0.5551;1.6291;
-97.2000;0.5560;1.6338;
-96.9000;0.5584;1.6385;
-96.6000;0.5576;1.6338;
-96.3000;0.5560;1.6408;
-96.0000;0.5576;1.6502;
-95.7000;0.5576;1.6432;
-95.4000;0.5576;1.6455;
-95.1000;0.5568;1.6572;
-94.8000;0.5576;1.6642;
-94.5000;0.5543;1.6596;
-94.2000;0.5576;1.6619;
-93.9000;0.5568;1.6689;
-93.6000;0.5560;1.6689;
-93.3000;0.5568;1.6736;
-93.0000;0.5568;1.6689;
-92.7000;0.5560;1.6666;
-92.4000;0.5568;1.6806;
-92.1000;0.5486;1.6596;
-91.8000;0.5560;1.6783;
-91.5000;0.5543;1.6689;
-91.2000;0.5470;1.6502;
-90.9000;0.5551;1.6666;
-90.6000;0.5592;1.6736;
-90.3000;0.5584;1.6619;
-90.0000;0.5535;1.6455;
-89.7000;0.5576;1.6362;
-89.4000;0.5551;1.6338;
-89.1000;0.5600;1.6385;
-88.8000;0.5551;1.6291;
-88.5000;0.5551;1.6291;
-88.2000;0.5633;1.6502;
-87.9000;0.5551;1.6268;
-87.6000;0.5560;1.6268;
-87.3000;0.5551;1.6291;
-87.0000;0.5535;1.6291;
-86.7000;0.5551;1.6245;
-86.4000;0.5511;1.6174;
-86.1000;0.5543;1.6315;
-85.8000;0.5560;1.6338;
-85.5000;0.5527;1.6315;
-85.2000;0.5543;1.6362;
-84.9000;0.5543;1.6338;
-84.6000;0.5535;1.6245;
-84.3000;0.5568;1.6362;
-84.0000;0.5543;1.6315;
-83.7000;0.5551;1.6362;
-83.4000;0.5551;1.6245;
-83.1000;0.5576;1.6221;
-82.8000;0.5551;1.6151;
-82.5000;0.5543;1.6104;
-82.2000;0.5608;1.6174;
-81.9000;0.5560;1.6034;
-81.6000;0.5560;1.5987;
-81.3000;0.5486;1.5823;
-81.0000;0.5560;1.6081;
-80.7000;0.5584;1.6057;
-80.4000;0.5478;1.5893;
-80.1000;0.5543;1.6151;
-79.8000;0.5560;1.6151;
-79.5000;0.5560;1.6198;
-79.2000;0.5576;1.6221;
-78.9000;0.5527;1.6198;
-78.6000;0.5551;1.6245;
-78.3000;0.5551;1.6291;
-78.0000;0.5560;1.6315;
-77.7000;0.5576;1.6338;
-77.4000;0.5560;1.6291;
-77.1000;0.5535;1.6362;
-76.8000;0.5568;1.6455;
-76.5000;0.5551;1.6432;
-76.2000;0.5543;1.6362;
-75.9000;0.5560;1.6525;
-75.6000;0.5551;1.6549;
-75.3000;0.5576;1.6666;
-75.0000;0.5495;1.6455;
-74.7000;0.5535;1.6619;
-74.4000;0.5576;1.6689;
-74.1000;0.5551;1.6572;
-73.8000;0.5568;1.6572;
-73.5000;0.5551;1.6455;
-73.2000;0.5551;1.6455;
-72.9000;0.5584;1.6502;
-72.6000;0.5568;1.6549;
-72.3000;0.5576;1.6549;
-72.0000;0.5576;1.6502;
-71.7000;0.5584;1.6479;
-71.4000;0.5568;1.6502;
-71.1000;0.5519;1.6408;
-70.8000;0.5543;1.6455;
-70.5000;0.5543;1.6432;
-70.2000;0.5543;1.6315;
-69.9000;0.5560;1.6291;
-69.6000;0.5543;1.6198;
-69.3000;0.5568;1.6198;
-69.0000;0.5568;1.6245;
-68.7000;0.5560;1.6221;
-68.4000;0.5560;1.6174;
-68.1000;0.5592;1.6245;
-67.8000;0.5543;1.6151;
-67.5000;0.5560;1.6198;
-67.2000;0.5543;1.6221;
-66.9000;0.5560;1.6291;
-66.6000;0.5584;1.6362;
-66.3000;0.5576;1.6362;
-66.0000;0.5568;1.6315;
-65.7000;0.5560;1.6268;
-65.4000;0.5576;1.6315;
-65.1000;0.5633;1.6432;
-64.8000;0.5568;1.6174;
-64.5000;0.5535;1.6057;
-64.2000;0.5576;1.6198;
-63.9000;0.5568;1.6198;
-63.6000;0.5543;1.6174;
-63.3000;0.5551;1.6338;
-63.0000;0.5560;1.6362;
-62.7000;0.5576;1.6291;
-62.4000;0.5543;1.6315;
-62.1000;0.5560;1.6291;
-61.8000;0.5592;1.6268;
-61.5000;0.5560;1.6174;
-61.2000;0.5560;1.6268;
-60.9000;0.5551;1.6245;
-60.6000;0.5560;1.6268;
-60.3000;0.5608;1.6408;
-60.0000;0.5543;1.6291;
-59.7000;0.5568;1.6362;
-59.4000;0.5608;1.6432;
-59.1000;0.5560;1.6221;
-58.8000;0.5576;1.6315;
-58.5000;0.5543;1.6291;
-58.2000;0.5568;1.6455;
-57.9000;0.5592;1.6549;
-57.6000;0.5568;1.6455;
-57.3000;0.5560;1.6432;
-57.0000;0.5625;1.6572;
-56.7000;0.5560;1.6362;
-56.4000;0.5495;1.6174;
-56.1000;0.5568;1.6338;
-55.8000;0.5560;1.6315;
-55.5000;0.5568;1.6362;
-55.2000;0.5568;1.6362;
-54.9000;0.5551;1.6432;
-54.6000;0.5592;1.6502;
-54.3000;0.5535;1.6338;
-54.0000;0.5568;1.6385;
-53.7000;0.5568;1.6408;
-53.4000;0.5568;1.6385;
-53.1000;0.5551;1.6385;
-52.8000;0.5568;1.6408;
-52.5000;0.5462;1.6151;
-52.2000;0.5576;1.6362;
-51.9000;0.5551;1.6408;
-51.6000;0.5560;1.6385;
-51.3000;0.5617;1.6549;
-51.0000;0.5568;1.6432;
-50.7000;0.5568;1.6432;
-50.4000;0.5560;1.6525;
-50.1000;0.5560;1.6525;
-49.8000;0.5568;1.6572;
-49.5000;0.5584;1.6619;
-49.2000;0.5600;1.6713;
-48.9000;0.5551;1.6642;
-48.6000;0.5560;1.6642;
-48.3000;0.5527;1.6385;
-48.0000;0.5584;1.6455;
-47.7000;0.5560;1.6479;
-47.4000;0.5584;1.6502;
-47.1000;0.5551;1.6455;
-46.8000;0.5568;1.6572;
-46.5000;0.5543;1.6479;
-46.2000;0.5543;1.6525;
-45.9000;0.5543;1.6596;
-45.6000;0.5560;1.6619;
-45.3000;0.5576;1.6642;
-45.0000;0.5560;1.6619;
-44.7000;0.5543;1.6572;
-44.4000;0.5543;1.6502;
-44.1000;0.5584;1.6525;
-43.8000;0.5584;1.6502;
-43.5000;0.5592;1.6502;
-43.2000;0.5519;1.6268;
-42.9000;0.5551;1.6385;
-42.6000;0.5568;1.6408;
-42.3000;0.5551;1.6408;
-42.0000;0.5543;1.6385;
-41.7000;0.5543;1.6385;
-41.4000;0.5551;1.6432;
-41.1000;0.5568;1.6408;
-40.8000;0.5551;1.6338;
-40.5000;0.5560;1.6385;
-40.2000;0.5551;1.6432;
-39.9000;0.5584;1.6455;
-39.6000;0.5560;1.6338;
-39.3000;0.5576;1.6408;
-39.0000;0.5560;1.6362;
-38.7000;0.5560;1.6408;
-38.4000;0.5495;1.6245;
-38.1000;0.5551;1.6338;
-37.8000;0.5543;1.6362;
-37.5000;0.5560;1.6408;
-37.2000;0.5568;1.6408;
-36.9000;0.5584;1.6432;
-36.6000;0.5543;1.6408;
-36.3000;0.5551;1.6502;
-36.0000;0.5576;1.6619;
-35.7000;0.5551;1.6619;
-35.4000;0.5617;1.6689;
-35.1000;0.5560;1.6525;
-34.8000;0.5560;1.6596;
-34.5000;0.5551;1.6572;
-34.2000;0.5486;1.6525;
-33.9000;0.5551;1.6642;
-33.6000;0.5551;1.6689;
-33.3000;0.5576;1.6759;
-33.0000;0.5478;1.6572;
-32.7000;0.5551;1.6783;
-32.4000;0.5568;1.6783;
-32.1000;0.5584;1.6806;
-31.8000;0.5568;1.6736;
-31.5000;0.5511;1.6666;
-31.2000;0.5568;1.6736;
-30.9000;0.5551;1.6736;
-30.6000;0.5600;1.6806;
-30.3000;0.5600;1.6736;
-30.0000;0.5600;1.6759;
-29.7000;0.5551;1.6619;
-29.4000;0.5560;1.6596;
-29.1000;0.5560;1.6619;
-28.8000;0.5511;1.6502;
-28.5000;0.5519;1.6502;
-28.2000;0.5551;1.6666;
-27.9000;0.5527;1.6525;
-27.6000;0.5560;1.6619;
-27.3000;0.5551;1.6642;
-27.0000;0.5584;1.6736;
-26.7000;0.5576;1.6759;
-26.4000;0.5584;1.6830;
-26.1000;0.5576;1.6853;
-25.8000;0.5592;1.6947;
-25.5000;0.5576;1.6900;
-25.2000;0.5543;1.6806;
-24.9000;0.5543;1.6736;
-24.6000;0.5551;1.6713;
-24.3000;0.5560;1.6783;
-24.0000;0.5535;1.6666;
-23.7000;0.5543;1.6642;
-23.4000;0.5560;1.6689;
-23.1000;0.5551;1.6572;
-22.8000;0.5551;1.6549;
-22.5000;0.5543;1.6502;
-22.2000;0.5568;1.6432;
-21.9000;0.5560;1.6338;
-21.6000;0.5560;1.6408;
-21.3000;0.5543;1.6502;
-21.0000;0.5617;1.6619;
-20.7000;0.5560;1.6455;
-20.4000;0.5568;1.6502;
-20.1000;0.5543;1.6549;
-19.8000;0.5560;1.6525;
-19.5000;0.5568;1.6549;
-19.2000;0.5560;1.6502;
-18.9000;0.5511;1.6455;
-18.6000;0.5551;1.6736;
-18.3000;0.5551;1.6666;
-18.0000;0.5551;1.6713;
-17.7000;0.5543;1.6713;
-17.4000;0.5551;1.6666;
-17.1000;0.5568;1.6572;
-16.8000;0.5551;1.6502;
-16.5000;0.5511;1.6338;
-16.2000;0.5551;1.6455;
-15.9000;0.5551;1.6362;
-15.6000;0.5665;1.6572;
-15.3000;0.5560;1.6338;
-15.0000;0.5543;1.6385;
-14.7000;0.5568;1.6502;
-14.4000;0.5576;1.6572;
-14.1000;0.5568;1.6596;
-13.8000;0.5576;1.6619;
-13.5000;0.5576;1.6525;
-13.2000;0.5576;1.6455;
-12.9000;0.5592;1.6525;
-12.6000;0.5576;1.6455;
-12.3000;0.5560;1.6432;
-12.0000;0.5560;1.6455;
-11.7000;0.5592;1.6572;
-11.4000;0.5495;1.6362;
-11.1000;0.5568;1.6502;
-10.8000;0.5551;1.6549;
-10.5000;0.5600;1.6619;
-10.2000;0.5576;1.6502;
-9.9000;0.5543;1.6502;
-9.6000;0.5551;1.6549;
-9.3000;0.5576;1.6689;
-9.0000;0.5576;1.6642;
-8.7000;0.5584;1.6572;
-8.4000;0.5551;1.6479;
-8.1000;0.5551;1.6455;
-7.8000;0.5551;1.6502;
-7.5000;0.5551;1.6479;
-7.2000;0.5527;1.6385;
-6.9000;0.5560;1.6432;
-6.6000;0.5568;1.6479;
-6.3000;0.5568;1.6549;
-6.0000;0.5535;1.6455;
-5.7000;0.5551;1.6596;
-5.4000;0.5551;1.6549;
-5.1000;0.5576;1.6596;
-4.8000;0.5551;1.6549;
-4.5000;0.5608;1.6689;
-4.2000;0.5576;1.6525;
-3.9000;0.5584;1.6596;
-3.6000;0.5633;1.6713;
-3.3000;0.5568;1.6549;
-3.0000;0.5584;1.6502;
-2.7000;0.5576;1.6572;
-2.4000;0.5568;1.6642;
-2.1000;0.5551;1.6596;
-1.8000;0.5576;1.6666;
-1.5000;0.5576;1.6642;
-1.2000;0.5568;1.6502;
-0.9000;0.5568;1.6525;
-0.6000;0.5592;1.6525;
-0.3000;0.5592;1.6502;
0.0000;0.5592;1.6502;
0.3000;0.5576;1.6174;
0.6000;0.5747;1.6596;
0.9000;0.5828;1.6947;
1.2000;0.5910;1.7298;
1.5000;0.5967;1.7509;
1.8000;0.6007;1.7672;
2.1000;0.6089;1.7883;
2.4000;0.6072;1.7977;
2.7000;0.6121;1.8141;
3.0000;0.6146;1.8258;
3.3000;0.6129;1.8258;
3.6000;0.6154;1.8375;
3.9000;0.6186;1.8515;
4.2000;0.6186;1.8585;
4.5000;0.6186;1.8562;
4.8000;0.6235;1.8679;
5.1000;0.6195;1.8609;
5.4000;0.6227;1.8749;
5.7000;0.6276;1.8819;
6.0000;0.6284;1.8866;
6.3000;0.6268;1.8890;
6.6000;0.6260;1.8913;
6.9000;0.6284;1.8960;
7.2000;0.6300;1.9030;
7.5000;0.6300;1.9100;
7.8000;0.6292;1.9053;
8.1000;0.6243;1.8819;
8.4000;0.6300;1.8960;
8.7000;0.6333;1.8960;
9.0000;0.6317;1.8960;
9.3000;0.6284;1.8913;
9.6000;0.6357;1.9100;
9.9000;0.6325;1.8960;
10.2000;0.6365;1.8983;
10.5000;0.6365;1.8960;
10.8000;0.6357;1.8936;
11.1000;0.6349;1.8936;
11.4000;0.6357;1.9030;
11.7000;0.6382;1.9077;
12.0000;0.6374;1.9030;
12.3000;0.6374;1.9147;
12.6000;0.6341;1.9007;
12.9000;0.6341;1.8936;
13.2000;0.6406;1.9124;
13.5000;0.6357;1.9077;
13.8000;0.6398;1.9053;
14.1000;0.6300;1.8843;
14.4000;0.6398;1.9053;
14.7000;0.6414;1.9007;
15.0000;0.6504;1.9241;
15.3000;0.6414;1.9077;
15.6000;0.6422;1.9053;
15.9000;0.6463;1.9147;
16.2000;0.6496;1.9311;
16.5000;0.6447;1.9194;
16.8000;0.6447;1.9100;
17.1000;0.6447;1.9053;
17.4000;0.6447;1.9124;
17.7000;0.6463;1.9124;
18.0000;0.6488;1.9170;
18.3000;0.6463;1.9100;
18.6000;0.6463;1.9194;
18.9000;0.6455;1.9077;
19.2000;0.6471;1.9030;
19.5000;0.6536;1.9147;
19.8000;0.6463;1.9053;
20.1000;0.6504;1.9100;
20.4000;0.6520;1.9100;
20.7000;0.6471;1.9053;
21.0000;0.6488;1.9007;
21.3000;0.6496;1.9007;
21.6000;0.6488;1.9053;
21.9000;0.6520;1.9147;
22.2000;0.6479;1.9053;
22.5000;0.6504;1.9007;
22.8000;0.6496;1.8983;
23.1000;0.6479;1.8983;
23.4000;0.6504;1.8960;
23.7000;0.6504;1.8936;
24.0000;0.6504;1.9030;
24.3000;0.6512;1.9100;
24.6000;0.6504;1.9053;
24.9000;0.6528;1.9124;
25.2000;0.6536;1.9053;
25.5000;0.6512;1.8960;
25.8000;0.6585;1.9053;
26.1000;0.6528;1.8983;
26.4000;0.6545;1.9077;
26.7000;0.6545;1.9100;
27.0000;0.6496;1.8983;
27.3000;0.6520;1.9077;
27.6000;0.6520;1.9077;
27.9000;0.6634;1.9358;
28.2000;0.6520;1.9030;
28.5000;0.6553;1.8936;
28.8000;0.6520;1.8796;
29.1000;0.6512;1.8773;
29.4000;0.6545;1.8819;
29.7000;0.6536;1.8866;
30.0000;0.6553;1.8890;
30.3000;0.6569;1.8913;
30.6000;0.6610;1.8936;
30.9000;0.6545;1.8773;
31.2000;0.6577;1.8843;
31.5000;0.6561;1.8936;
31.8000;0.6577;1.9077;
32.1000;0.6561;1.8983;
32.4000;0.6536;1.8936;
32.7000;0.6553;1.8936;
33.0000;0.6577;1.8890;
33.3000;0.6561;1.8913;
33.6000;0.6618;1.9030;
33.9000;0.6569;1.8890;
34.2000;0.6577;1.8843;
34.5000;0.6577;1.8890;
34.8000;0.6545;1.8796;
35.1000;0.6561;1.8866;
35.4000;0.6577;1.8819;
35.7000;0.6512;1.8632;
36.0000;0.6585;1.8843;
36.3000;0.6569;1.8773;
36.6000;0.6610;1.8796;
36.9000;0.6545;1.8655;
37.2000;0.6569;1.8609;
37.5000;0.6577;1.8632;
37.8000;0.6585;1.8609;
38.1000;0.6593;1.8726;
38.4000;0.6577;1.8702;
38.7000;0.6585;1.8796;
39.0000;0.6569;1.8773;
39.3000;0.6585;1.8819;
39.6000;0.6553;1.8749;
39.9000;0.6593;1.8749;
40.2000;0.6528;1.8562;
40.5000;0.6610;1.8819;
40.8000;0.6577;1.8749;
41.1000;0.6593;1.8773;
41.4000;0.6610;1.8866;
41.7000;0.6593;1.8796;
42.0000;0.6626;1.8890;
42.3000;0.6610;1.8936;
42.6000;0.6585;1.9030;
42.9000;0.6602;1.9147;
43.2000;0.6618;1.9170;
43.5000;0.6585;1.9030;
43.8000;0.6585;1.9100;
44.1000;0.6610;1.9217;
44.4000;0.6618;1.9264;
44.7000;0.6618;1.9217;
45.0000;0.6585;1.9077;
45.3000;0.6618;1.9147;
45.6000;0.6618;1.9124;
45.9000;0.6618;1.9217;
46.2000;0.6618;1.9194;
46.5000;0.6618;1.9194;
46.8000;0.6675;1.9381;
47.1000;0.6593;1.9124;
47.4000;0.6610;1.9194;
47.7000;0.6610;1.9287;
48.0000;0.6618;1.9311;
48.3000;0.6618;1.9311;
48.6000;0.6610;1.9217;
48.9000;0.6602;1.9100;
49.2000;0.6618;1.9124;
49.5000;0.6618;1.9053;
49.8000;0.6618;1.9007;
50.1000;0.6602;1.9053;
50.4000;0.6618;1.9030;
50.7000;0.6642;1.9077;
51.0000;0.6699;1.9194;
51.3000;0.6602;1.8936;
51.6000;0.6626;1.9030;
51.9000;0.6626;1.9077;
52.2000;0.6610;1.8983;
52.5000;0.6650;1.9053;
52.8000;0.6626;1.9007;
53.1000;0.6626;1.8960;
53.4000;0.6634;1.9007;
53.7000;0.6642;1.9030;
54.0000;0.6626;1.8936;
54.3000;0.6626;1.8890;
54.6000;0.6642;1.8843;
54.9000;0.6626;1.8796;
55.2000;0.6642;1.8843;
55.5000;0.6626;1.8843;
55.8000;0.6650;1.8960;
56.1000;0.6634;1.8866;
56.4000;0.6642;1.8913;
56.7000;0.6642;1.8866;
57.0000;0.6650;1.8819;
57.3000;0.6634;1.8632;
57.6000;0.6642;1.8655;
57.9000;0.6634;1.8679;
58.2000;0.6642;1.8796;
58.5000;0.6642;1.8890;
58.8000;0.6602;1.8796;
59.1000;0.6634;1.8843;
59.4000;0.6634;1.8890;
59.7000;0.6634;1.8936;
60.0000;0.6675;1.9030;
60.3000;0.6659;1.9053;
60.6000;0.6659;1.9124;
60.9000;0.6650;1.9007;
61.2000;0.6667;1.9053;
61.5000;0.6602;1.8866;
61.8000;0.6626;1.8960;
62.1000;0.6683;1.9170;
62.4000;0.6650;1.9124;
62.7000;0.6650;1.9053;
63.0000;0.6675;1.9077;
63.3000;0.6642;1.9053;
63.6000;0.6699;1.9170;
63.9000;0.6642;1.8983;
64.2000;0.6593;1.8843;
64.5000;0.6593;1.8890;
64.8000;0.6642;1.8960;
65.1000;0.6642;1.8960;
65.4000;0.6650;1.9077;
65.7000;0.6634;1.9100;
66.0000;0.6626;1.9077;
66.3000;0.6797;1.9475;
66.6000;0.6634;1.9030;
66.9000;0.6634;1.8983;
67.2000;0.6659;1.8960;
67.5000;0.6610;1.8796;
67.8000;0.6642;1.8819;
68.1000;0.6675;1.8819;
68.4000;0.6659;1.8819;
68.7000;0.6650;1.8819;
69.0000;0.6634;1.8749;
69.3000;0.6642;1.8749;
69.6000;0.6634;1.8702;
69.9000;0.6610;1.8609;
70.2000;0.6650;1.8726;
70.5000;0.6675;1.8773;
70.8000;0.6618;1.8702;
71.1000;0.6650;1.8773;
71.4000;0.6618;1.8796;
71.7000;0.6650;1.8890;
72.0000;0.6675;1.8936;
72.3000;0.6659;1.8936;
72.6000;0.6667;1.8866;
72.9000;0.6659;1.8890;
73.2000;0.6667;1.8936;
73.5000;0.6659;1.8960;
73.8000;0.6659;1.9053;
74.1000;0.6667;1.9030;
74.4000;0.6667;1.9053;
74.7000;0.6650;1.9007;
75.0000;0.6642;1.8890;
75.3000;0.6650;1.8819;
75.6000;0.6659;1.8796;
75.9000;0.6683;1.8796;
76.2000;0.6659;1.8796;
76.5000;0.6667;1.8843;
76.8000;0.6659;1.8796;
77.1000;0.6659;1.8866;
77.4000;0.6667;1.8843;
77.7000;0.6683;1.8866;
78.0000;0.6642;1.8773;
78.3000;0.6675;1.8890;
78.6000;0.6650;1.8866;
78.9000;0.6667;1.8913;
79.2000;0.6667;1.8936;
79.5000;0.6659;1.8936;
79.8000;0.6667;1.8866;
80.1000;0.6650;1.8913;
80.4000;0.6675;1.8913;
80.7000;0.6675;1.8960;
81.0000;0.6642;1.8843;
81.3000;0.6667;1.8913;
81.6000;0.6691;1.8960;
81.9000;0.6683;1.8983;
82.2000;0.6634;1.8819;
82.5000;0.6659;1.8960;
82.8000;0.6659;1.8843;
83.1000;0.6659;1.8843;
83.4000;0.6650;1.8866;
83.7000;0.6634;1.8866;
84.0000;0.6659;1.8936;
84.3000;0.6659;1.8936;
84.6000;0.6650;1.8890;
84.9000;0.6659;1.8913;
85.2000;0.6659;1.8913;
85.5000;0.6675;1.8890;
85.8000;0.6659;1.8749;
86.1000;0.6716;1.8890;
86.4000;0.6659;1.8773;
86.7000;0.6667;1.8749;
87.0000;0.6667;1.8749;
87.3000;0.6699;1.8773;
87.6000;0.6602;1.8562;
87.9000;0.6667;1.8679;
88.2000;0.6683;1.8726;
88.5000;0.6650;1.8702;
88.8000;0.6675;1.8749;
89.1000;0.6683;1.8749;
89.4000;0.6691;1.8726;
89.7000;0.6650;1.8773;
90.0000;0.6675;1.8843;
90.3000;0.6683;1.8913;
90.6000;0.6667;1.8913;
90.9000;0.6683;1.8843;
91.2000;0.6675;1.8843;
91.5000;0.6675;1.8819;
91.8000;0.6659;1.8773;
92.1000;0.6667;1.8773;
92.4000;0.6667;1.8679;
92.7000;0.6675;1.8585;
93.0000;0.6707;1.8655;
93.3000;0.6634;1.8562;
93.6000;0.6659;1.8655;
93.9000;0.6650;1.8726;
94.2000;0.6650;1.8702;
94.5000;0.6691;1.8819;
94.8000;0.6602;1.8702;
95.1000;0.6659;1.8819;
95.4000;0.6667;1.8843;
95.7000;0.6683;1.8890;
96.0000;0.6740;1.9007;
96.3000;0.6667;1.8819;
96.6000;0.6683;1.8843;
96.9000;0.6675;1.8819;
97.2000;0.6667;1.8819;
97.5000;0.6667;1.8726;
97.8000;0.6659;1.8726;
98.1000;0.6683;1.8796;
98.4000;0.6667;1.8819;
98.7000;0.6675;1.8819;
99.0000;0.6683;1.8890;
99.3000;0.6691;1.8960;
99.6000;0.6667;1.8936;
99.9000;0.6675;1.8890;
100.2000;0.6675;1.8843;
100.5000;0.6683;1.8819;
100.8000;0.6683;1.8773;
101.1000;0.6667;1.8679;
101.4000;0.6667;1.8679;
101.7000;0.6659;1.8773;
102.0000;0.6699;1.8866;
102.3000;0.6667;1.8819;
102.6000;0.6667;1.8819;
102.9000;0.6675;1.8890;
103.2000;0.6764;1.9124;
103.5000;0.6642;1.8843;
103.8000;0.6659;1.8866;
104.1000;0.6691;1.8866;
104.4000;0.6626;1.8749;
104.7000;0.6634;1.8773;
105.0000;0.6659;1.8819;
105.3000;0.6683;1.8890;
105.6000;0.6691;1.8796;
105.9000;0.6691;1.8773;
106.2000;0.6707;1.8819;
106.5000;0.6667;1.8726;
106.8000;0.6675;1.8726;
107.1000;0.6667;1.8726;
107.4000;0.6659;1.8773;
107.7000;0.6667;1.8773;
108.0000;0.6675;1.8726;
108.3000;0.6691;1.8679;
108.6000;0.6683;1.8609;
108.9000;0.6756;1.8866;
109.2000;0.6675;1.8609;
109.5000;0.6683;1.8632;
109.8000;0.6659;1.8632;
110.1000;0.6667;1.8562;
110.4000;0.6675;1.8609;
110.7000;0.6618;1.8492;
111.0000;0.6659;1.8585;
111.3000;0.6659;1.8538;
111.6000;0.6772;1.8819;
111.9000;0.6667;1.8538;
112.2000;0.6716;1.8655;
112.5000;0.6797;1.8890;
112.8000;0.6683;1.8655;
113.1000;0.6691;1.8655;
113.4000;0.6691;1.8609;
113.7000;0.6675;1.8726;
114.0000;0.6691;1.8796;
114.3000;0.6699;1.8819;
114.6000;0.6683;1.8843;
114.9000;0.6707;1.8866;
115.2000;0.6683;1.8773;
115.5000;0.6691;1.8773;
115.8000;0.6691;1.8773;
116.1000;0.6683;1.8773;
116.4000;0.6675;1.8655;
116.7000;0.6667;1.8655;
117.0000;0.6667;1.8632;
117.3000;0.6667;1.8632;
117.6000;0.6691;1.8655;
117.9000;0.6683;1.8749;
118.2000;0.6593;1.8585;
118.5000;0.6675;1.8749;
118.8000;0.6699;1.8843;
119.1000;0.6667;1.8866;
119.4000;0.6675;1.8796;
119.7000;0.6691;1.8702;
120.0000;0.6675;1.8655;
120.3000;0.6683;1.8749;
120.6000;0.6667;1.8796;
120.9000;0.6683;1.8843;
121.2000;0.6650;1.8773;
121.5000;0.6683;1.8819;
121.8000;0.6691;1.8843;
122.1000;0.6691;1.8819;
122.4000;0.6699;1.8843;
122.7000;0.6691;1.8749;
123.0000;0.6691;1.8702;
123.3000;0.6691;1.8773;
123.6000;0.6756;1.8796;
123.9000;0.6659;1.8609;
124.2000;0.6707;1.8726;
124.5000;0.6691;1.8702;
124.8000;0.6724;1.8749;
125.1000;0.6691;1.8726;
125.4000;0.6634;1.8655;
125.7000;0.6667;1.8726;
126.0000;0.6691;1.8819;
126.3000;0.6724;1.8960;
126.6000;0.6683;1.8796;
126.9000;0.6667;1.8726;
127.2000;0.6683;1.8726;
127.5000;0.6756;1.9007;
127.8000;0.6667;1.8796;
128.1000;0.6683;1.8749;
128.4000;0.6683;1.8773;
128.7000;0.6650;1.8773;
129.0000;0.6650;1.8749;
129.3000;0.6683;1.8796;
129.6000;0.6683;1.8866;
129.9000;0.6650;1.8749;
130.2000;0.6699;1.8866;
130.5000;0.6675;1.8773;
130.8000;0.6748;1.8960;
131.1000;0.6659;1.8726;
131.4000;0.6699;1.8702;
131.7000;0.6691;1.8702;
132.0000;0.6699;1.8819;
132.3000;0.6699;1.8819;
132.6000;0.6683;1.8819;
132.9000;0.6683;1.8819;
133.2000;0.6683;1.8866;
133.5000;0.6650;1.8913;
133.8000;0.6675;1.8983;
134.1000;0.6691;1.8983;
134.4000;0.6699;1.8960;
134.7000;0.6618;1.8796;
135.0000;0.6691;1.8936;
135.3000;0.6724;1.9007;
135.6000;0.6683;1.8843;
135.9000;0.6683;1.8890;
136.2000;0.6691;1.8913;
136.5000;0.6707;1.8936;
136.8000;0.6675;1.8913;
137.1000;0.6691;1.8960;
137.4000;0.6691;1.8866;
137.7000;0.6716;1.8936;
138.0000;0.6699;1.8866;
138.3000;0.6683;1.8819;
138.6000;0.6699;1.8819;
138.9000;0.6650;1.8773;
139.2000;0.6675;1.8866;
139.5000;0.6683;1.8773;
139.8000;0.6642;1.8609;
140.1000;0.6691;1.8843;
140.4000;0.6707;1.8936;
140.7000;0.6691;1.8890;
141.0000;0.6675;1.8890;
141.3000;0.6691;1.8890;
141.6000;0.6691;1.8843;
141.9000;0.6691;1.8843;
142.2000;0.6699;1.8866;
142.5000;0.6691;1.8749;
142.8000;0.6699;1.8749;
143.1000;0.6691;1.8796;
143.4000;0.6691;1.8913;
143.7000;0.6691;1.8913;
144.0000;0.6667;1.8890;
144.3000;0.6740;1.9030;
144.6000;0.6667;1.8890;
144.9000;0.6699;1.8890;
145.2000;0.6716;1.8890;
145.5000;0.6691;1.8819;
145.8000;0.6675;1.8796;
146.1000;0.6699;1.8866;
146.4000;0.6667;1.8843;
146.7000;0.6691;1.8960;
147.0000;0.6683;1.8890;
147.3000;0.6650;1.8796;
147.6000;0.6724;1.8936;
147.9000;0.6691;1.8843;
148.2000;0.6683;1.8726;
148.5000;0.6707;1.8819;
148.8000;0.6667;1.8819;
149.1000;0.6691;1.8749;
149.4000;0.6659;1.8679;
149.7000;0.6691;1.8773;
150.0000;0.6724;1.8890;
150.3000;0.6699;1.8843;
150.6000;0.6740;1.8936;
150.9000;0.6691;1.8913;
151.2000;0.6675;1.8913;
151.5000;0.6683;1.8913;
151.8000;0.6707;1.8913;
152.1000;0.6642;1.8726;
152.4000;0.6691;1.8936;
152.7000;0.6683;1.8866;
153.0000;0.6699;1.8913;
153.3000;0.6699;1.8843;
153.6000;0.6675;1.8819;
153.9000;0.6699;1.8960;
154.2000;0.6699;1.9007;
154.5000;0.6691;1.8960;
154.8000;0.6699;1.8983;
155.1000;0.6675;1.9030;
155.4000;0.6659;1.8983;
155.7000;0.6707;1.9053;
156.0000;0.6675;1.8890;
156.3000;0.6781;1.9077;
156.6000;0.6634;1.8702;
156.9000;0.6683;1.8866;
157.2000;0.6675;1.8819;
157.5000;0.6626;1.8655;
157.8000;0.6691;1.8749;
158.1000;0.6691;1.8819;
158.4000;0.6683;1.8866;
158.7000;0.6683;1.8913;
159.0000;0.6716;1.8983;
159.3000;0.6707;1.8913;
159.6000;0.6691;1.8890;
159.9000;0.6691;1.8913;
160.2000;0.6642;1.8773;
160.5000;0.6699;1.8913;
160.8000;0.6707;1.9007;
161.1000;0.6683;1.8960;
161.4000;0.6699;1.8960;
161.7000;0.6707;1.8866;
162.0000;0.6691;1.8843;
162.3000;0.6691;1.8913;
162.6000;0.6699;1.8819;
162.9000;0.6691;1.8749;
163.2000;0.6707;1.8726;
163.5000;0.6699;1.8796;
163.8000;0.6829;1.9030;
164.1000;0.6699;1.8726;
164.4000;0.6716;1.8796;
164.7000;0.6691;1.8773;
165.0000;0.6691;1.8843;
165.3000;0.6683;1.8866;
165.6000;0.6707;1.8866;
165.9000;0.6699;1.8819;
166.2000;0.6683;1.8773;
166.5000;0.6691;1.8796;
166.8000;0.6699;1.8843;
167.1000;0.6683;1.8936;
167.4000;0.6683;1.8913;
167.7000;0.6683;1.8843;
168.0000;0.6707;1.8913;
168.3000;0.6699;1.8913;
168.6000;0.6691;1.8890;
168.9000;0.6699;1.8913;
169.2000;0.6691;1.8866;
169.5000;0.6683;1.8796;
169.8000;0.6699;1.8960;
170.1000;0.6691;1.8866;
170.4000;0.6650;1.8726;
170.7000;0.6683;1.8866;
171.0000;0.6699;1.8890;
171.3000;0.6683;1.8843;
171.6000;0.6667;1.8843;
171.9000;0.6650;1.8702;
172.2000;0.6732;1.8866;
172.5000;0.6724;1.8819;
172.8000;0.6691;1.8679;
173.1000;0.6642;1.8655;
173.4000;0.6683;1.8773;
173.7000;0.6716;1.8890;
174.0000;0.6716;1.8819;
174.3000;0.6691;1.8796;
174.6000;0.6683;1.8773;
174.9000;0.6659;1.8702;
175.2000;0.6716;1.8843;
175.5000;0.6699;1.8843;
175.8000;0.6699;1.8796;
176.1000;0.6699;1.8913;
176.4000;0.6675;1.8843;
176.7000;0.6683;1.8866;
177.0000;0.6683;1.8983;
177.3000;0.6667;1.8866;
177.6000;0.6667;1.8796;
177.9000;0.6659;1.8609;
178.2000;0.6716;1.8773;
178.5000;0.6707;1.8843;
178.8000;0.6716;1.8890;
179.1000;0.6683;1.8702;
179.4000;0.6707;1.8796;
179.7000;0.6716;1.8796;
180.0000;0.6699;1.8726;
180.3000;0.6691;1.8679;
180.6000;0.6699;1.8749;
180.9000;0.6707;1.8773;
181.2000;0.6716;1.8819;
181.5000;0.6716;1.8702;
181.8000;0.6707;1.8632;
182.1000;0.6691;1.8702;
182.4000;0.6683;1.8679;
182.7000;0.6716;1.8843;
183.0000;0.6675;1.8773;
183.3000;0.6683;1.8749;
183.6000;0.6683;1.8749;
183.9000;0.6667;1.8702;
184.2000;0.6659;1.8702;
184.5000;0.6683;1.8843;
184.8000;0.6683;1.8890;
185.1000;0.6683;1.8819;
185.4000;0.6691;1.8749;
185.7000;0.6659;1.8585;
186.0000;0.6683;1.8655;
186.3000;0.6659;1.8702;
186.6000;0.6683;1.8819;
186.9000;0.6683;1.8843;
187.2000;0.6659;1.8773;
187.5000;0.6675;1.8796;
187.8000;0.6691;1.8866;
188.1000;0.6667;1.8843;
188.4000;0.6683;1.8913;
188.7000;0.6683;1.8890;
189.0000;0.6691;1.8890;
189.3000;0.6659;1.8796;
189.6000;0.6699;1.8913;
189.9000;0.6683;1.8890;
190.2000;0.6691;1.8890;
190.5000;0.6667;1.8890;
190.8000;0.6675;1.8983;
191.1000;0.6683;1.8960;
191.4000;0.6683;1.8983;
191.7000;0.6659;1.8936;
192.0000;0.6675;1.8913;
192.3000;0.6683;1.9007;
192.6000;0.6724;1.9194;
192.9000;0.6683;1.9077;
193.2000;0.6732;1.9053;
193.5000;0.6675;1.8983;
193.8000;0.6699;1.9030;
194.1000;0.6683;1.8936;
194.4000;0.6667;1.8866;
194.7000;0.6707;1.8866;
195.0000;0.6699;1.8843;
195.3000;0.6707;1.8749;
195.6000;0.6707;1.8773;
195.9000;0.6699;1.8796;
196.2000;0.6691;1.8773;
196.5000;0.6667;1.8679;
196.8000;0.6691;1.8773;
197.1000;0.6642;1.8609;
197.4000;0.6716;1.8773;
197.7000;0.6691;1.8655;
198.0000;0.6691;1.8702;
198.3000;0.6691;1.8632;
198.6000;0.6707;1.8679;
198.9000;0.6691;1.8702;
199.2000;0.6699;1.8655;
199.5000;0.6675;1.8655;
199.8000;0.6716;1.8726;
200.1000;0.6707;1.8655;
200.4000;0.6707;1.8585;
200.7000;0.6691;1.8585;
201.0000;0.6683;1.8609;
201.3000;0.6683;1.8585;
201.6000;0.6699;1.8655;
201.9000;0.6699;1.8609;
202.2000;0.6683;1.8585;
202.5000;0.6699;1.8609;
202.8000;0.6691;1.8655;
203.1000;0.6691;1.8679;
203.4000;0.6691;1.8726;
203.7000;0.6691;1.8749;
204.0000;0.6699;1.8749;
204.3000;0.6707;1.8796;
204.6000;0.6683;1.8655;
204.9000;0.6707;1.8538;
205.2000;0.6707;1.8585;
205.5000;0.6691;1.8538;
205.8000;0.6683;1.8655;
206.1000;0.6683;1.8702;
206.4000;0.6691;1.8726;
206.7000;0.6683;1.8726;
207.0000;0.6691;1.8726;
207.3000;0.6683;1.8749;
207.6000;0.6691;1.8890;
207.9000;0.6724;1.8983;
208.2000;0.6683;1.8866;
208.5000;0.6683;1.8773;
208.8000;0.6683;1.8726;
209.1000;0.6699;1.8890;
209.4000;0.6691;1.8936;
209.7000;0.6675;1.8890;
210.0000;0.6716;1.8960;
210.3000;0.6797;1.9124;
210.6000;0.6683;1.8773;
210.9000;0.6683;1.8726;
211.2000;0.6699;1.8702;
211.5000;0.6691;1.8679;
211.8000;0.6691;1.8773;
212.1000;0.6675;1.8749;
212.4000;0.6659;1.8726;
212.7000;0.6659;1.8655;
213.0000;0.6683;1.8585;
213.3000;0.6650;1.8538;
213.6000;0.6659;1.8702;
213.9000;0.6675;1.8702;
214.2000;0.6634;1.8562;
214.5000;0.6716;1.8749;
214.8000;0.6683;1.8726;
215.1000;0.6667;1.8749;
215.4000;0.6675;1.8819;
215.7000;0.6691;1.8890;
216.0000;0.6675;1.8890;
216.3000;0.6691;1.8796;
216.6000;0.6707;1.8890;
216.9000;0.6691;1.8843;
217.2000;0.6667;1.8773;
217.5000;0.6764;1.8983;
217.8000;0.6675;1.8843;
218.1000;0.6667;1.8843;
218.4000;0.6683;1.8843;
218.7000;0.6683;1.8819;
219.0000;0.6610;1.8585;
219.3000;0.6691;1.8796;
219.6000;0.6642;1.8726;
219.9000;0.6683;1.8796;
220.2000;0.6691;1.8819;
220.5000;0.6740;1.8936;
220.8000;0.6650;1.8749;
221.1000;0.6610;1.8632;
221.4000;0.6675;1.8843;
221.7000;0.6634;1.8749;
222.0000;0.6699;1.8890;
222.3000;0.6699;1.8890;
222.6000;0.6626;1.8773;
222.9000;0.6667;1.8890;
223.2000;0.6699;1.8819;
223.5000;0.6699;1.8843;
223.8000;0.6691;1.8866;
224.1000;0.6683;1.8890;
224.4000;0.6691;1.8913;
224.7000;0.6691;1.8960;
225.0000;0.6667;1.8936;
225.3000;0.6691;1.8960;
225.6000;0.6691;1.8936;
225.9000;0.6699;1.8983;
226.2000;0.6707;1.9030;
226.5000;0.6683;1.8936;
226.8000;0.6683;1.8983;
227.1000;0.6724;1.8983;
227.4000;0.6667;1.8913;
227.7000;0.6675;1.8890;
228.0000;0.6667;1.8936;
228.3000;0.6699;1.8913;
228.6000;0.6691;1.8866;
228.9000;0.6675;1.8866;
229.2000;0.6569;1.8585;
229.5000;0.6691;1.8866;
229.8000;0.6699;1.8890;
230.1000;0.6683;1.8796;
230.4000;0.6659;1.8702;
230.7000;0.6699;1.8773;
231.0000;0.6732;1.8819;
231.3000;0.6683;1.8702;
231.6000;0.6683;1.8726;
231.9000;0.6691;1.8819;
232.2000;0.6707;1.8843;
232.5000;0.6683;1.8890;
232.8000;0.6675;1.8796;
233.1000;0.6675;1.8632;
233.4000;0.6707;1.8796;
233.7000;0.6675;1.8679;
234.0000;0.6707;1.8773;
234.3000;0.6642;1.8585;
234.6000;0.6683;1.8819;
234.9000;0.6716;1.8890;
235.2000;0.6675;1.8749;
235.5000;0.6683;1.8749;
235.8000;0.6691;1.8749;
236.1000;0.6667;1.8679;
236.4000;0.6724;1.8819;
236.7000;0.6667;1.8749;
237.0000;0.6634;1.8726;
237.3000;0.6683;1.8913;
237.6000;0.6699;1.8936;
237.9000;0.6691;1.8866;
238.2000;0.6683;1.8796;
238.5000;0.6699;1.8819;
238.8000;0.6691;1.8819;
239.1000;0.6675;1.8796;
239.4000;0.6683;1.8655;
239.7000;0.6691;1.8796;
240.0000;0.6691;1.8843;
240.3000;0.6642;1.8749;
240.6000;0.6683;1.8866;
240.9000;0.6691;1.8913;
241.2000;0.6675;1.8866;
241.5000;0.6667;1.8843;
241.8000;0.6667;1.8843;
242.1000;0.6707;1.8866;
242.4000;0.6675;1.8726;
242.7000;0.6675;1.8679;
243.0000;0.6675;1.8702;
243.3000;0.6691;1.8749;
243.6000;0.6691;1.8749;
243.9000;0.6675;1.8749;
244.2000;0.6691;1.8819;
244.5000;0.6667;1.8702;
244.8000;0.6626;1.8655;
245.1000;0.6740;1.8960;
245.4000;0.6691;1.8819;
245.7000;0.6650;1.8866;
246.0000;0.6683;1.8960;
246.3000;0.6683;1.8913;
246.6000;0.6699;1.8960;
246.9000;0.6667;1.8890;
247.2000;0.6667;1.8936;
247.5000;0.6683;1.8936;
247.8000;0.6683;1.8890;
248.1000;0.6667;1.8866;
248.4000;0.6732;1.9053;
248.7000;0.6740;1.8960;
249.0000;0.6683;1.8773;
249.3000;0.6642;1.8632;
249.6000;0.6634;1.8655;
249.9000;0.6675;1.8796;
250.2000;0.6724;1.8960;
250.5000;0.6707;1.8960;
250.8000;0.6683;1.8866;
251.1000;0.6642;1.8679;
251.4000;0.6683;1.8726;
251.7000;0.6675;1.8655;
252.0000;0.6683;1.8609;
252.3000;0.6683;1.8632;
252.6000;0.6691;1.8679;
252.9000;0.6683;1.8632;
253.2000;0.6659;1.8538;
253.5000;0.6675;1.8655;
253.8000;0.6724;1.8773;
254.1000;0.6699;1.8749;
254.4000;0.6691;1.8773;
254.7000;0.6675;1.8773;
255.0000;0.6683;1.8890;
255.3000;0.6683;1.8796;
255.6000;0.6699;1.8843;
255.9000;0.6675;1.8796;
256.2000;0.6683;1.8843;
256.5000;0.6683;1.8843;
256.8000;0.6707;1.8796;
257.1000;0.6683;1.8679;
257.4000;0.6691;1.8702;
257.7000;0.6699;1.8796;
258.0000;0.6675;1.8819;
258.3000;0.6675;1.8843;
258.6000;0.6675;1.8936;
258.9000;0.6683;1.9007;
259.2000;0.6691;1.8983;
259.5000;0.6667;1.9007;
259.8000;0.6667;1.9007;
260.1000;0.6707;1.9030;
260.4000;0.6667;1.8819;
260.7000;0.6683;1.8890;
261.0000;0.6602;1.8679;
261.3000;0.6699;1.8890;
261.6000;0.6675;1.8913;
261.9000;0.6691;1.8983;
262.2000;0.6683;1.8936;
262.5000;0.6691;1.8960;
262.8000;0.6683;1.8913;
263.1000;0.6691;1.8936;
263.4000;0.6683;1.8936;
263.7000;0.6683;1.8913;
264.0000;0.6716;1.8913;
264.3000;0.6699;1.8843;
264.6000;0.6716;1.8866;
264.9000;0.6691;1.8819;
265.2000;0.6683;1.8866;
265.5000;0.6659;1.8936;
265.8000;0.6683;1.8983;
266.1000;0.6683;1.8983;
266.4000;0.6683;1.8936;
266.7000;0.6691;1.8960;
267.0000;0.6683;1.9007;
267.3000;0.6683;1.8983;
267.6000;0.6683;1.9007;
267.9000;0.6699;1.8983;
268.2000;0.6667;1.8983;
268.5000;0.6675;1.8983;
268.8000;0.6667;1.8936;
269.1000;0.6675;1.8960;
269.4000;0.6683;1.8890;
269.7000;0.6691;1.8843;
270.0000;0.6707;1.8866;
270.3000;0.6667;1.8843;
270.6000;0.6724;1.9007;
270.9000;0.6667;1.8843;
271.2000;0.6691;1.8843;
271.5000;0.6699;1.8866;
271.8000;0.6691;1.8866;
272.1000;0.6699;1.8936;
272.4000;0.6650;1.8936;
272.7000;0.6675;1.9053;
273.0000;0.6683;1.9147;
273.3000;0.6675;1.9030;
273.6000;0.6561;1.8679;
273.9000;0.6675;1.8913;
274.2000;0.6683;1.9007;
274.5000;0.6748;1.9077;
274.8000;0.6683;1.8843;
275.1000;0.6683;1.8726;
275.4000;0.6691;1.8726;
275.7000;0.6699;1.8749;
276.0000;0.6642;1.8702;
276.3000;0.6675;1.8749;
276.6000;0.6659;1.8773;
276.9000;0.6724;1.8936;
277.2000;0.6724;1.8913;
277.5000;0.6675;1.8843;
277.8000;0.6699;1.8890;
278.1000;0.6691;1.8843;
278.4000;0.6667;1.8890;
278.7000;0.6675;1.8913;
279.0000;0.6659;1.8936;
279.3000;0.6602;1.8702;
279.6000;0.6699;1.8960;
279.9000;0.6675;1.8843;
280.2000;0.6659;1.8773;
280.5000;0.6667;1.8819;
280.8000;0.6691;1.8843;
281.1000;0.6667;1.8773;
281.4000;0.6675;1.8819;
281.7000;0.6675;1.8890;
282.0000;0.6683;1.8866;
282.3000;0.6667;1.8773;
282.6000;0.6667;1.8843;
282.9000;0.6675;1.8983;
283.2000;0.6675;1.8960;
283.5000;0.6667;1.8983;
283.8000;0.6683;1.9100;
284.1000;0.6699;1.9100;
284.4000;0.6626;1.8913;
284.7000;0.6667;1.8913;
285.0000;0.6659;1.8702;
285.3000;0.6675;1.8632;
285.6000;0.6659;1.8562;
285.9000;0.6683;1.8585;
286.2000;0.6667;1.8562;
286.5000;0.6707;1.8702;
286.8000;0.6675;1.8726;
287.1000;0.6691;1.8726;
287.4000;0.6732;1.8913;
287.7000;0.6683;1.8890;
288.0000;0.6650;1.8749;
288.3000;0.6683;1.8749;
288.6000;0.6667;1.8726;
288.9000;0.6683;1.8749;
289.2000;0.6683;1.8749;
289.5000;0.6675;1.8726;
289.8000;0.6659;1.8773;
290.1000;0.6691;1.8819;
290.4000;0.6667;1.8773;
290.7000;0.6675;1.8773;
291.0000;0.6707;1.8843;
291.3000;0.6683;1.8773;
291.6000;0.6675;1.8819;
291.9000;0.6716;1.8866;
292.2000;0.6642;1.8702;
292.5000;0.6683;1.8749;
292.8000;0.6675;1.8726;
293.1000;0.6683;1.8796;
293.4000;0.6683;1.8866;
293.7000;0.6667;1.8890;
294.0000;0.6642;1.8843;
294.3000;0.6659;1.8796;
294.6000;0.6667;1.8773;
294.9000;0.6675;1.8843;
295.2000;0.6675;1.8843;
295.5000;0.6650;1.8796;
295.8000;0.6675;1.8749;
296.1000;0.6650;1.8702;
296.4000;0.6707;1.8866;
296.7000;0.6675;1.8749;
297.0000;0.6683;1.8819;
297.3000;0.6683;1.8913;
297.6000;0.6748;1.9007;
297.9000;0.6675;1.8890;
298.2000;0.6675;1.8796;
298.5000;0.6691;1.8773;
298.8000;0.6691;1.8843;
299.1000;0.6667;1.8796;
299.4000;0.6667;1.8726;
299.7000;0.6699;1.8819;
300.0000;0.6724;1.8866;
300.3000;0.6667;1.8726;
300.6000;0.6667;1.8609;
300.9000;0.6675;1.8679;
301.2000;0.6642;1.8679;
301.5000;0.6699;1.8749;
301.8000;0.6675;1.8632;
302.1000;0.6659;1.8655;
302.4000;0.6650;1.8679;
302.7000;0.6659;1.8749;
303.0000;0.6675;1.8773;
303.3000;0.6756;1.8936;
303.6000;0.6667;1.8679;
303.9000;0.6659;1.8702;
304.2000;0.6659;1.8726;
304.5000;0.6642;1.8773;
304.8000;0.6667;1.8866;
305.1000;0.6667;1.8913;
305.4000;0.6634;1.8890;
305.7000;0.6675;1.8866;
306.0000;0.6699;1.8890;
306.3000;0.6675;1.8819;
306.6000;0.6659;1.8773;
306.9000;0.6772;1.9053;
307.2000;0.6675;1.8890;
307.5000;0.6691;1.8890;
307.8000;0.6659;1.8819;
308.1000;0.6642;1.8796;
308.4000;0.6675;1.8726;
308.7000;0.6675;1.8749;
309.0000;0.6650;1.8796;
309.3000;0.6675;1.8936;
309.6000;0.6650;1.8913;
309.9000;0.6667;1.8960;
310.2000;0.6667;1.8890;
310.5000;0.6732;1.9053;
310.8000;0.6659;1.8890;
311.1000;0.6699;1.8983;
311.4000;0.6683;1.9053;
311.7000;0.6667;1.9030;
312.0000;0.6667;1.9007;
312.3000;0.6659;1.9007;
312.6000;0.6675;1.8960;
312.9000;0.6642;1.8773;
313.2000;0.6675;1.8796;
313.5000;0.6659;1.8773;
313.8000;0.6683;1.8890;
314.1000;0.6626;1.8679;
314.4000;0.6683;1.8796;
314.7000;0.6675;1.8773;
315.0000;0.6675;1.8796;
315.3000;0.6683;1.8843;
315.6000;0.6659;1.8702;
315.9000;0.6667;1.8679;
316.2000;0.6667;1.8679;
316.5000;0.6691;1.8749;
316.8000;0.6675;1.8655;
317.1000;0.6650;1.8702;
317.4000;0.6642;1.8819;
317.7000;0.6716;1.8983;
318.0000;0.6667;1.8890;
318.3000;0.6675;1.8913;
318.6000;0.6650;1.8890;
318.9000;0.6683;1.8983;
319.2000;0.6675;1.8983;
319.5000;0.6659;1.8960;
319.8000;0.6667;1.9007;
320.1000;0.6667;1.9077;
320.4000;0.6667;1.8936;
320.7000;0.6659;1.8913;
321.0000;0.6667;1.8890;
321.3000;0.6659;1.8796;
321.6000;0.6667;1.8796;
321.9000;0.6659;1.8749;
322.2000;0.6675;1.8702;
322.5000;0.6675;1.8702;
322.8000;0.6650;1.8585;
323.1000;0.6691;1.8749;
323.4000;0.6675;1.8796;
323.7000;0.6675;1.8749;
324.0000;0.6683;1.8843;
324.3000;0.6667;1.8843;
324.6000;0.6675;1.8866;
324.9000;0.6650;1.8796;
325.2000;0.6659;1.8866;
325.5000;0.6699;1.8936;
325.8000;0.6659;1.8890;
326.1000;0.6650;1.8913;
326.4000;0.6667;1.8936;
326.7000;0.6691;1.9007;
327.0000;0.6691;1.9007;
327.3000;0.6724;1.9100;
327.6000;0.6683;1.8960;
327.9000;0.6691;1.8866;
328.2000;0.6699;1.8819;
328.5000;0.6667;1.8749;
328.8000;0.6577;1.8515;
329.1000;0.6683;1.8819;
329.4000;0.6683;1.8819;
329.7000;0.6659;1.8726;
330.0000;0.6659;1.8702;
330.3000;0.6675;1.8702;
330.6000;0.6675;1.8655;
330.9000;0.6667;1.8726;
331.2000;0.6675;1.8819;
331.5000;0.6691;1.8960;
331.8000;0.6667;1.8866;
332.1000;0.6667;1.8866;
332.4000;0.6732;1.8983;
332.7000;0.6683;1.8913;
333.0000;0.6675;1.8936;
333.3000;0.6683;1.8936;
333.6000;0.6740;1.9053;
333.9000;0.6650;1.8890;
334.2000;0.6675;1.8983;
334.5000;0.6585;1.8749;
334.8000;0.6675;1.8913;
335.1000;0.6707;1.8913;
335.4000;0.6659;1.8913;
335.7000;0.6667;1.8890;
336.0000;0.6675;1.8843;
336.3000;0.6683;1.8890;
336.6000;0.6675;1.8890;
336.9000;0.6667;1.8890;
337.2000;0.6675;1.8843;
337.5000;0.6675;1.8819;
337.8000;0.6675;1.8796;
338.1000;0.6683;1.8726;
338.4000;0.6667;1.8702;
338.7000;0.6683;1.8632;
339.0000;0.6642;1.8538;
339.3000;0.6675;1.8632;
339.6000;0.6675;1.8726;
339.9000;0.6659;1.8726;
340.2000;0.6675;1.8773;
340.5000;0.6675;1.8866;
340.8000;0.6667;1.8890;
341.1000;0.6650;1.8890;
341.4000;0.6659;1.8913;
341.7000;0.6650;1.8819;
342.0000;0.6683;1.8866;
342.3000;0.6675;1.8960;
342.6000;0.6659;1.8936;
342.9000;0.6650;1.8983;
343.2000;0.6675;1.9007;
343.5000;0.6740;1.9053;
343.8000;0.6659;1.8819;
344.1000;0.6667;1.8796;
344.4000;0.6659;1.8796;
344.7000;0.6585;1.8655;
345.0000;0.6683;1.8773;
345.3000;0.6634;1.8562;
345.6000;0.6659;1.8702;
345.9000;0.6650;1.8679;
346.2000;0.6675;1.8679;
346.5000;0.6675;1.8655;
346.8000;0.6650;1.8655;
347.1000;0.6650;1.8773;
347.4000;0.6659;1.8843;
347.7000;0.6650;1.8866;
348.0000;0.6675;1.8843;
348.3000;0.6634;1.8702;
348.6000;0.6675;1.8843;
348.9000;0.6618;1.8773;
349.2000;0.6667;1.8866;
349.5000;0.6659;1.8796;
349.8000;0.6716;1.8913;
350.1000;0.6675;1.8843;
350.4000;0.6724;1.8960;
350.7000;0.6659;1.8913;
351.0000;0.6667;1.8936;
351.3000;0.6634;1.8749;
351.6000;0.6650;1.8913;
351.9000;0.6642;1.9030;
352.2000;0.6667;1.9030;
352.5000;0.6691;1.9124;
352.8000;0.6667;1.8983;
353.1000;0.6650;1.8960;
353.4000;0.6675;1.8936;
353.7000;0.6675;1.9007;
354.0000;0.6667;1.9030;
354.3000;0.6659;1.8913;
354.6000;0.6659;1.8890;
354.9000;0.6667;1.8866;
355.2000;0.6667;1.8890;
355.5000;0.6667;1.9007;
355.8000;0.6667;1.9030;
356.1000;0.6659;1.8960;
356.4000;0.6650;1.9077;
356.7000;0.6642;1.9077;
357.0000;0.6675;1.9147;
357.3000;0.6683;1.9241;
357.6000;0.6659;1.9170;
357.9000;0.6650;1.9100;
358.2000;0.6699;1.9194;
358.5000;0.6659;1.9007;
358.8000;0.6642;1.8936;
359.1000;0.6642;1.8936;
359.4000;0.6650;1.8936;
359.7000;0.6650;1.8773;
360.0000;0.6618;1.8679;
360.3000;0.6642;1.8749;
360.6000;0.6659;1.8773;
360.9000;0.6675;1.8890;
361.2000;0.6659;1.8890;
361.5000;0.6667;1.8936;
361.8000;0.6634;1.8960;
362.1000;0.6650;1.9077;
362.4000;0.6659;1.8983;
362.7000;0.6699;1.8960;
363.0000;0.6650;1.8936;
363.3000;0.6683;1.8960;
363.6000;0.6675;1.9030;
363.9000;0.6675;1.9053;
364.2000;0.6691;1.9053;
364.5000;0.6659;1.9030;
364.8000;0.6675;1.9007;
365.1000;0.6659;1.8936;
365.4000;0.6675;1.8960;
365.7000;0.6626;1.8843;
366.0000;0.6650;1.8983;
366.3000;0.6675;1.9030;
366.6000;0.6667;1.9007;
366.9000;0.6650;1.8983;
367.2000;0.6659;1.8936;
367.5000;0.6642;1.8843;
367.8000;0.6683;1.8890;
368.1000;0.6675;1.8843;
368.4000;0.6675;1.8936;
368.7000;0.6683;1.9077;
369.0000;0.6675;1.9030;
369.3000;0.6675;1.9030;
369.6000;0.6667;1.9077;
369.9000;0.6667;1.9124;
370.2000;0.6683;1.9217;
370.5000;0.6683;1.9147;
370.8000;0.6659;1.9100;
371.1000;0.6667;1.9030;
371.4000;0.6683;1.9030;
371.7000;0.6650;1.8936;
372.0000;0.6691;1.9007;
372.3000;0.6659;1.8983;
372.6000;0.6650;1.9077;
372.9000;0.6650;1.9077;
373.2000;0.6642;1.9100;
373.5000;0.6626;1.9030;
373.8000;0.6683;1.9147;
374.1000;0.6691;1.9194;
374.4000;0.6593;1.8936;
374.7000;0.6650;1.8960;
375.0000;0.6650;1.8960;
375.3000;0.6667;1.8936;
375.6000;0.6650;1.8983;
375.9000;0.6683;1.9053;
376.2000;0.6634;1.8960;
376.5000;0.6577;1.8726;
376.8000;0.6667;1.8866;
377.1000;0.6683;1.9007;
377.4000;0.6650;1.8866;
377.7000;0.6675;1.8866;
378.0000;0.6764;1.9124;
378.3000;0.6659;1.8843;
378.6000;0.6659;1.8936;
378.9000;0.6691;1.9007;
379.2000;0.6724;1.9053;
379.5000;0.6642;1.8890;
379.8000;0.6602;1.8749;
380.1000;0.6659;1.8983;
380.4000;0.6634;1.8983;
380.7000;0.6699;1.9147;
381.0000;0.6667;1.9077;
381.3000;0.6659;1.9030;
381.6000;0.6675;1.9007;
381.9000;0.6659;1.9007;
382.2000;0.6634;1.9007;
382.5000;0.6667;1.8983;
382.8000;0.6659;1.9007;
383.1000;0.6683;1.9053;
383.4000;0.6716;1.9147;
383.7000;0.6642;1.9030;
384.0000;0.6634;1.8983;
384.3000;0.6659;1.9077;
384.6000;0.6675;1.8960;
384.9000;0.6667;1.9007;
385.2000;0.6642;1.8983;
385.5000;0.6659;1.8983;
385.8000;0.6650;1.8913;
386.1000;0.6675;1.8913;
386.4000;0.6659;1.8913;
386.7000;0.6667;1.8913;
387.0000;0.6642;1.8843;
387.3000;0.6659;1.8890;
387.6000;0.6659;1.8866;
387.9000;0.6667;1.8866;
388.2000;0.6659;1.8913;
388.5000;0.6650;1.8936;
388.8000;0.6667;1.9030;
389.1000;0.6659;1.9124;
389.4000;0.6650;1.9053;
389.7000;0.6618;1.9007;
390.0000;0.6642;1.9053;
390.3000;0.6667;1.9100;
390.6000;0.6585;1.8960;
390.9000;0.6634;1.9053;
391.2000;0.6650;1.8983;
391.5000;0.6667;1.8936;
391.8000;0.6675;1.8913;
392.1000;0.6683;1.8960;
392.4000;0.6650;1.8960;
392.7000;0.6642;1.8983;
393.0000;0.6667;1.8983;
393.3000;0.6667;1.9077;
393.6000;0.6659;1.9030;
393.9000;0.6659;1.9100;
394.2000;0.6626;1.8913;
394.5000;0.6667;1.9124;
394.8000;0.6650;1.9147;
395.1000;0.6634;1.9077;
395.4000;0.6707;1.9217;
395.7000;0.6667;1.9100;
396.0000;0.6634;1.8960;
396.3000;0.6642;1.8983;
396.6000;0.6675;1.9077;
396.9000;0.6667;1.9077;
397.2000;0.6642;1.9053;
397.5000;0.6569;1.8890;
397.8000;0.6642;1.9077;
398.1000;0.6610;1.8913;
398.4000;0.6724;1.9194;
398.7000;0.6675;1.9053;
399.0000;0.6650;1.8913;
399.3000;0.6724;1.9077;
399.6000;0.6602;1.8843;
399.9000;0.6707;1.8960;
400.2000;0.6683;1.8960;
400.5000;0.6634;1.8913;
400.8000;0.6691;1.9053;
401.1000;0.6659;1.8913;
401.4000;0.6650;1.8936;
401.7000;0.6650;1.8913;
402.0000;0.6659;1.8866;
402.3000;0.6675;1.8913;
402.6000;0.6699;1.8983;
402.9000;0.6642;1.8866;
403.2000;0.6667;1.8913;
403.5000;0.6675;1.9007;
403.8000;0.6650;1.9007;
404.1000;0.6650;1.9030;
404.4000;0.6667;1.9100;
404.7000;0.6634;1.8960;
405.0000;0.6667;1.9100;
405.3000;0.6650;1.9100;
405.6000;0.6650;1.9147;
405.9000;0.6659;1.9217;
406.2000;0.6748;1.9358;
406.5000;0.6740;1.9264;
406.8000;0.6675;1.9030;
407.1000;0.6683;1.8960;
407.4000;0.6650;1.8890;
407.7000;0.6675;1.8913;
408.0000;0.6650;1.8843;
408.3000;0.6675;1.8866;
408.6000;0.6585;1.8702;
408.9000;0.6659;1.8843;
409.2000;0.6642;1.8773;
409.5000;0.6626;1.8773;
409.8000;0.6659;1.8819;
410.1000;0.6650;1.8890;
410.4000;0.6667;1.9007;
410.7000;0.6618;1.8866;
411.0000;0.6634;1.8890;
411.3000;0.6667;1.8960;
411.6000;0.6650;1.8913;
411.9000;0.6667;1.8936;
412.2000;0.6650;1.8960;
412.5000;0.6650;1.8890;
412.8000;0.6642;1.8936;
413.1000;0.6569;1.8632;
413.4000;0.6650;1.8936;
413.7000;0.6610;1.8866;
414.0000;0.6699;1.9053;
414.3000;0.6642;1.8890;
414.6000;0.6748;1.9100;
414.9000;0.6650;1.8843;
415.2000;0.6634;1.8796;
415.5000;0.6650;1.8843;
415.8000;0.6659;1.8913;
416.1000;0.6675;1.8983;
416.4000;0.6659;1.8913;
416.7000;0.6642;1.8936;
417.0000;0.6650;1.8983;
417.3000;0.6659;1.8913;
417.6000;0.6683;1.8936;
417.9000;0.6618;1.8726;
418.2000;0.6650;1.8819;
418.5000;0.6659;1.8819;
418.8000;0.6650;1.8843;
419.1000;0.6650;1.8913;
419.4000;0.6667;1.9007;
419.7000;0.6650;1.8913;
420.0000;0.6642;1.8866;
420.3000;0.6659;1.8890;
420.6000;0.6650;1.8819;
420.9000;0.6691;1.8866;
421.2000;0.6618;1.8726;
421.5000;0.6650;1.8749;
421.8000;0.6602;1.8609;
422.1000;0.6659;1.8819;
422.4000;0.6740;1.9030;
422.7000;0.6667;1.8819;
423.0000;0.6650;1.8773;
423.3000;0.6650;1.8773;
423.6000;0.6659;1.8796;
423.9000;0.6650;1.8843;
424.2000;0.6642;1.8913;
424.5000;0.6610;1.8843;
424.8000;0.6650;1.8890;
425.1000;0.6650;1.8866;
425.4000;0.6650;1.8890;
425.7000;0.6650;1.8866;
426.0000;0.6650;1.8890;
426.3000;0.6659;1.8843;
426.6000;0.6569;1.8632;
426.9000;0.6634;1.8866;
427.2000;0.6659;1.8866;
427.5000;0.6659;1.8819;
427.8000;0.6691;1.8936;
428.1000;0.6650;1.8843;
428.4000;0.6642;1.8890;
428.7000;0.6577;1.8773;
429.0000;0.6642;1.8913;
429.3000;0.6585;1.8726;
429.6000;0.6650;1.8866;
429.9000;0.6634;1.8913;
430.2000;0.6650;1.8960;
430.5000;0.6642;1.9053;
430.8000;0.6642;1.9053;
431.1000;0.6642;1.8983;
431.4000;0.6667;1.9007;
431.7000;0.6642;1.8843;
432.0000;0.6642;1.8936;
432.3000;0.6667;1.9007;
432.6000;0.6602;1.8890;
432.9000;0.6650;1.9030;
433.2000;0.6626;1.8890;
433.5000;0.6634;1.8913;
433.8000;0.6650;1.8983;
434.1000;0.6699;1.9124;
434.4000;0.6650;1.8983;
434.7000;0.6642;1.8983;
435.0000;0.6642;1.8960;
435.3000;0.6593;1.8796;
435.6000;0.6650;1.8960;
435.9000;0.6659;1.8960;
436.2000;0.6634;1.8866;
436.5000;0.6585;1.8702;
436.8000;0.6642;1.8843;
437.1000;0.6650;1.8773;
437.4000;0.6659;1.8796;
437.7000;0.6659;1.8726;
438.0000;0.6634;1.8632;
438.3000;0.6626;1.8749;
438.6000;0.6650;1.8866;
438.9000;0.6642;1.8866;
439.2000;0.6748;1.9030;
439.5000;0.6634;1.8796;
439.8000;0.6618;1.8726;
440.1000;0.6659;1.8773;
440.4000;0.6650;1.8796;
440.7000;0.6650;1.8796;
441.0000;0.6659;1.8819;
441.3000;0.6650;1.8843;
441.6000;0.6667;1.8843;
441.9000;0.6642;1.8773;
442.2000;0.6642;1.8773;
442.5000;0.6659;1.8819;
442.8000;0.6634;1.8749;
443.1000;0.6659;1.8773;
443.4000;0.6642;1.8702;
443.7000;0.6650;1.8679;
444.0000;0.6707;1.8866;
444.3000;0.6650;1.8749;
444.6000;0.6650;1.8796;
444.9000;0.6650;1.8866;
445.2000;0.6650;1.8819;
445.5000;0.6732;1.8983;
445.8000;0.6659;1.8773;
446.1000;0.6650;1.8773;
446.4000;0.6675;1.8773;
446.7000;0.6667;1.8749;
447.0000;0.6659;1.8749;
447.3000;0.6659;1.8773;
447.6000;0.6667;1.8796;
447.9000;0.6650;1.8749;
448.2000;0.6659;1.8702;
448.5000;0.6748;1.8936;
448.8000;0.6634;1.8702;
449.1000;0.6642;1.8749;
449.4000;0.6667;1.8749;
449.7000;0.6569;1.8538;
450.0000;0.6634;1.8726;
450.3000;0.6650;1.8702;
450.6000;0.6593;1.8585;
450.9000;0.6642;1.8796;
451.2000;0.6618;1.8773;
451.5000;0.6659;1.8913;
451.8000;0.6659;1.8819;
452.1000;0.6683;1.8913;
452.4000;0.6683;1.8960;
452.7000;0.6659;1.8843;
453.0000;0.6659;1.8819;
453.3000;0.6650;1.8749;
453.6000;0.6634;1.8726;
453.9000;0.6642;1.8773;
454.2000;0.6650;1.8796;
454.5000;0.6667;1.8843;
454.8000;0.6650;1.8796;
455.1000;0.6642;1.8843;
455.4000;0.6650;1.8913;
455.7000;0.6675;1.8960;
456.0000;0.6650;1.8843;
456.3000;0.6667;1.8890;
456.6000;0.6634;1.8843;
456.9000;0.6642;1.8913;
457.2000;0.6659;1.8913;
457.5000;0.6650;1.8960;
457.8000;0.6650;1.8960;
458.1000;0.6659;1.8960;
458.4000;0.6650;1.8960;
458.7000;0.6659;1.9030;
459.0000;0.6642;1.9053;
459.3000;0.6642;1.9053;
459.6000;0.6642;1.9053;
459.9000;0.6626;1.9030;
460.2000;0.6626;1.9077;
460.5000;0.6561;1.8936;
460.8000;0.6642;1.9124;
461.1000;0.6650;1.9053;
461.4000;0.6650;1.9053;
461.7000;0.6642;1.8983;
462.0000;0.6675;1.8960;
462.3000;0.6659;1.8866;
462.6000;0.6650;1.8890;
462.9000;0.6650;1.8866;
463.2000;0.6667;1.8819;
463.5000;0.6691;1.9007;
463.8000;0.6650;1.8819;
464.1000;0.6642;1.8773;
464.4000;0.6667;1.8796;
464.7000;0.6650;1.8726;
465.0000;0.6650;1.8796;
465.3000;0.6634;1.8679;
465.6000;0.6650;1.8726;
465.9000;0.6659;1.8655;
466.2000;0.6699;1.8679;
466.5000;0.6642;1.8609;
466.8000;0.6691;1.8773;
467.1000;0.6618;1.8585;
467.4000;0.6634;1.8585;
467.7000;0.6634;1.8609;
468.0000;0.6699;1.8796;
468.3000;0.6618;1.8515;
468.6000;0.6634;1.8585;
468.9000;0.6650;1.8609;
469.2000;0.6626;1.8609;
469.5000;0.6626;1.8562;
469.8000;0.6610;1.8492;
470.1000;0.6642;1.8585;
470.4000;0.6675;1.8796;
470.7000;0.6667;1.8773;
471.0000;0.6659;1.8773;
471.3000;0.6634;1.8702;
471.6000;0.6642;1.8702;
471.9000;0.6707;1.8796;
472.2000;0.6626;1.8632;
472.5000;0.6667;1.8749;
472.8000;0.6634;1.8749;
473.1000;0.6716;1.8890;
473.4000;0.6667;1.8773;
473.7000;0.6642;1.8773;
474.0000;0.6642;1.8773;
474.3000;0.6634;1.8890;
474.6000;0.6650;1.8936;
474.9000;0.6650;1.8960;
475.2000;0.6634;1.9030;
475.5000;0.6569;1.8913;
475.8000;0.6642;1.8983;
476.1000;0.6642;1.9007;
476.4000;0.6642;1.8936;
476.7000;0.6593;1.8866;
477.0000;0.6650;1.8960;
477.3000;0.6642;1.8866;
477.6000;0.6626;1.8819;
477.9000;0.6634;1.8796;
478.2000;0.6642;1.8773;
478.5000;0.6667;1.8866;
478.8000;0.6642;1.8819;
479.1000;0.6634;1.8819;
479.4000;0.6618;1.8726;
479.7000;0.6626;1.8726;
480.0000;0.6642;1.8819;
480.3000;0.6602;1.8749;
480.6000;0.6610;1.8843;
480.9000;0.6642;1.8913;
481.2000;0.6634;1.8796;
481.5000;0.6659;1.8843;
481.8000;0.6626;1.8843;
482.1000;0.6691;1.8983;
482.4000;0.6650;1.8819;
482.7000;0.6691;1.8866;
483.0000;0.6650;1.8819;
483.3000;0.6659;1.8819;
483.6000;0.6634;1.8726;
483.9000;0.6626;1.8773;
484.2000;0.6683;1.8936;
484.5000;0.6610;1.8749;
484.8000;0.6634;1.8866;
485.1000;0.6650;1.8866;
485.4000;0.6642;1.8796;
485.7000;0.6650;1.8913;
486.0000;0.6626;1.8866;
486.3000;0.6650;1.8913;
486.6000;0.6634;1.8936;
486.9000;0.6642;1.9030;
487.2000;0.6634;1.9124;
487.5000;0.6618;1.9147;
487.8000;0.6634;1.9194;
488.1000;0.6642;1.9124;
488.4000;0.6618;1.9053;
488.7000;0.6650;1.9147;
489.0000;0.6618;1.9147;
489.3000;0.6618;1.9124;
489.6000;0.6618;1.9100;
489.9000;0.6618;1.9100;
490.2000;0.6626;1.9077;
490.5000;0.6634;1.9007;
490.8000;0.6634;1.9030;
491.1000;0.6642;1.9053;
491.4000;0.6659;1.9030;
491.7000;0.6642;1.9030;
492.0000;0.6691;1.9194;
492.3000;0.6642;1.9124;
492.6000;0.6642;1.9077;
492.9000;0.6650;1.9077;
493.2000;0.6634;1.9077;
493.5000;0.6650;1.9147;
493.8000;0.6650;1.9124;
494.1000;0.6650;1.9147;
494.4000;0.6593;1.8983;
494.7000;0.6610;1.8936;
495.0000;0.6626;1.8936;
495.3000;0.6650;1.9007;
495.6000;0.6650;1.9100;
495.9000;0.6634;1.9077;
496.2000;0.6650;1.9100;
496.5000;0.6626;1.9100;
496.8000;0.6642;1.9147;
497.1000;0.6626;1.9030;
497.4000;0.6756;1.9287;
497.7000;0.6642;1.9007;
498.0000;0.6634;1.8936;
498.3000;0.6659;1.8913;
498.6000;0.6626;1.8679;
498.9000;0.6642;1.8749;
499.2000;0.6650;1.8749;
499.5000;0.6634;1.8843;
499.8000;0.6634;1.8866;
500.1000;0.6585;1.8726;
500.4000;0.6683;1.8913;
500.7000;0.6634;1.8796;
501.0000;0.6634;1.8866;
501.3000;0.6626;1.8819;
501.6000;0.6650;1.8819;
501.9000;0.6659;1.8890;
502.2000;0.6642;1.8913;
502.5000;0.6659;1.8913;
502.8000;0.6642;1.8960;
503.1000;0.6642;1.9030;
503.4000;0.6642;1.9053;
503.7000;0.6659;1.9077;
504.0000;0.6675;1.9007;
504.3000;0.6642;1.8936;
504.6000;0.6618;1.8890;
504.9000;0.6650;1.8960;
505.2000;0.6634;1.8913;
505.5000;0.6707;1.9030;
505.8000;0.6642;1.8866;
506.1000;0.6659;1.8819;
506.4000;0.6642;1.8796;
506.7000;0.6634;1.8843;
507.0000;0.6667;1.8890;
507.3000;0.6667;1.8913;
507.6000;0.6634;1.8913;
507.9000;0.6650;1.8890;
508.2000;0.6650;1.8866;
508.5000;0.6642;1.8843;
508.8000;0.6642;1.8819;
509.1000;0.6634;1.8796;
509.4000;0.6642;1.8843;
509.7000;0.6634;1.8796;
510.0000;0.6618;1.8726;
510.3000;0.6585;1.8726;
510.6000;0.6626;1.8796;
510.9000;0.6618;1.8749;
511.2000;0.6659;1.8890;
511.5000;0.6618;1.8796;
511.8000;0.6634;1.8866;
512.1000;0.6659;1.8890;
512.4000;0.6634;1.8749;
512.7000;0.6642;1.8702;
513.0000;0.6650;1.8702;
513.3000;0.6593;1.8655;
513.6000;0.6642;1.8890;
513.9000;0.6716;1.9077;
514.2000;0.6642;1.8890;
514.5000;0.6650;1.8936;
514.8000;0.6642;1.8866;
515.1000;0.6650;1.8843;
515.4000;0.6756;1.9124;
515.7000;0.6642;1.8866;
516.0000;0.6634;1.8913;
516.3000;0.6642;1.8913;
516.6000;0.6650;1.8913;
516.9000;0.6642;1.8960;
517.2000;0.6642;1.8960;
517.5000;0.6642;1.8983;
517.8000;0.6602;1.8819;
518.1000;0.6642;1.8936;
518.4000;0.6610;1.8843;
518.7000;0.6634;1.8819;
519.0000;0.6650;1.8866;
519.3000;0.6642;1.8866;
519.6000;0.6585;1.8655;
519.9000;0.6634;1.8773;
520.2000;0.6634;1.8773;
520.5000;0.6634;1.8843;
520.8000;0.6602;1.8702;
521.1000;0.6634;1.8749;
521.4000;0.6650;1.8679;
521.7000;0.6618;1.8562;
522.0000;0.6642;1.8702;
522.3000;0.6626;1.8702;
522.6000;0.6618;1.8726;
522.9000;0.6642;1.8749;
523.2000;0.6634;1.8773;
523.5000;0.6634;1.8866;
523.8000;0.6642;1.8819;
524.1000;0.6626;1.8796;
524.4000;0.6659;1.8843;
524.7000;0.6650;1.8796;
525.0000;0.6642;1.8843;
525.3000;0.6634;1.8796;
525.6000;0.6634;1.8866;
525.9000;0.6650;1.8936;
526.2000;0.6626;1.8796;
526.5000;0.6650;1.8843;
526.8000;0.6642;1.8819;
527.1000;0.6650;1.8773;
527.4000;0.6642;1.8819;
527.7000;0.6634;1.8819;
528.0000;0.6659;1.8843;
528.3000;0.6642;1.8726;
528.6000;0.6634;1.8679;
528.9000;0.6650;1.8679;
529.2000;0.6691;1.8702;
529.5000;0.6659;1.8702;
529.8000;0.6650;1.8726;
530.1000;0.6634;1.8655;
530.4000;0.6626;1.8726;
530.7000;0.6634;1.8749;
531.0000;0.6634;1.8819;
531.3000;0.6634;1.8936;
531.6000;0.6626;1.9030;
531.9000;0.6642;1.9077;
532.2000;0.6642;1.9030;
532.5000;0.6626;1.8936;
532.8000;0.6634;1.8843;
533.1000;0.6650;1.8819;
533.4000;0.6650;1.8702;
533.7000;0.6642;1.8726;
534.0000;0.6618;1.8773;
534.3000;0.6626;1.8773;
534.6000;0.6626;1.8866;
534.9000;0.6610;1.8796;
535.2000;0.6634;1.8890;
535.5000;0.6585;1.8773;
535.8000;0.6626;1.8843;
536.1000;0.6642;1.8843;
536.4000;0.6659;1.8866;
536.7000;0.6626;1.8749;
537.0000;0.6642;1.8773;
537.3000;0.6545;1.8655;
537.6000;0.6626;1.8843;
537.9000;0.6642;1.8960;
538.2000;0.6626;1.8936;
538.5000;0.6610;1.8913;
538.8000;0.6626;1.8866;
539.1000;0.6626;1.8866;
539.4000;0.6691;1.9053;
539.7000;0.6634;1.8843;
540.0000;0.6634;1.8773;
540.3000;0.6691;1.8983;
540.6000;0.6634;1.8843;
540.9000;0.6626;1.8843;
541.2000;0.6659;1.8866;
541.5000;0.6634;1.8866;
541.8000;0.6626;1.8749;
542.1000;0.6626;1.8655;
542.4000;0.6626;1.8632;
542.7000;0.6634;1.8702;
543.0000;0.6634;1.8796;
543.3000;0.6642;1.8749;
543.6000;0.6683;1.8843;
543.9000;0.6642;1.8866;
544.2000;0.6650;1.8819;
544.5000;0.6642;1.8773;
544.8000;0.6642;1.8773;
545.1000;0.6634;1.8749;
545.4000;0.6642;1.8773;
545.7000;0.6610;1.8796;
546.0000;0.6626;1.8843;
546.3000;0.6642;1.8960;
546.6000;0.6618;1.8890;
546.9000;0.6618;1.8843;
547.2000;0.6634;1.8819;
547.5000;0.6618;1.8702;
547.8000;0.6634;1.8726;
548.1000;0.6642;1.8796;
548.4000;0.6626;1.8749;
548.7000;0.6634;1.8773;
549.0000;0.6634;1.8773;
549.3000;0.6642;1.8819;
549.6000;0.6618;1.8773;
549.9000;0.6642;1.8890;
550.2000;0.6634;1.8913;
550.5000;0.6650;1.8913;
550.8000;0.6642;1.8819;
551.1000;0.6626;1.8866;
551.4000;0.6634;1.8890;
551.7000;0.6626;1.8796;
552.0000;0.6626;1.8773;
552.3000;0.6618;1.8726;
552.6000;0.6724;1.9007;
552.9000;0.6626;1.8819;
553.2000;0.6634;1.8819;
553.5000;0.6618;1.8773;
553.8000;0.6650;1.8890;
554.1000;0.6650;1.8819;
554.4000;0.6602;1.8726;
554.7000;0.6618;1.8749;
555.0000;0.6610;1.8843;
555.3000;0.6650;1.8983;
555.6000;0.6626;1.8913;
555.9000;0.6626;1.8913;
556.2000;0.6577;1.8843;
556.5000;0.6626;1.8936;
556.8000;0.6626;1.8913;
557.1000;0.6618;1.8843;
557.4000;0.6602;1.8796;
557.7000;0.6626;1.8866;
558.0000;0.6610;1.8796;
558.3000;0.6650;1.8796;
558.6000;0.6634;1.8726;
558.9000;0.6642;1.8749;
559.2000;0.6634;1.8843;
559.5000;0.6634;1.8866;
559.8000;0.6650;1.8890;
560.1000;0.6699;1.9077;
560.4000;0.6650;1.9007;
560.7000;0.6618;1.8960;
561.0000;0.6593;1.8936;
561.3000;0.6634;1.9077;
561.6000;0.6610;1.9053;
561.9000;0.6528;1.8749;
562.2000;0.6626;1.8913;
562.5000;0.6634;1.8913;
562.8000;0.6699;1.8983;
563.1000;0.6642;1.8866;
563.4000;0.6642;1.8866;
563.7000;0.6634;1.8913;
564.0000;0.6683;1.9007;
564.3000;0.6626;1.8796;
564.6000;0.6626;1.8773;
564.9000;0.6634;1.8796;
565.2000;0.6650;1.8866;
565.5000;0.6634;1.8796;
565.8000;0.6642;1.8796;
566.1000;0.6618;1.8796;
566.4000;0.6618;1.8819;
566.7000;0.6634;1.8773;
567.0000;0.6618;1.8749;
567.3000;0.6626;1.8749;
567.6000;0.6585;1.8655;
567.9000;0.6626;1.8749;
568.2000;0.6642;1.8749;
568.5000;0.6634;1.8749;
568.8000;0.6634;1.8819;
569.1000;0.6683;1.9030;
569.4000;0.6650;1.8983;
569.7000;0.6634;1.8913;
570.0000;0.6659;1.9030;
570.3000;0.6642;1.8913;
570.6000;0.6626;1.8796;
570.9000;0.6618;1.8726;
571.2000;0.6650;1.8843;
571.5000;0.6618;1.8866;
571.8000;0.6634;1.8983;
572.1000;0.6610;1.8866;
572.4000;0.6626;1.8936;
572.7000;0.6634;1.8890;
573.0000;0.6618;1.8960;
573.3000;0.6626;1.9030;
573.6000;0.6626;1.9077;
573.9000;0.6618;1.9053;
574.2000;0.6593;1.8960;
574.5000;0.6618;1.8983;
574.8000;0.6634;1.8983;
575.1000;0.6634;1.8936;
575.4000;0.6634;1.8936;
575.7000;0.6602;1.8866;
576.0000;0.6626;1.8936;
576.3000;0.6626;1.8819;
576.6000;0.6634;1.8819;
576.9000;0.6716;1.9053;
577.2000;0.6650;1.8866;
577.5000;0.6536;1.8538;
577.8000;0.6634;1.8726;
578.1000;0.6618;1.8702;
578.4000;0.6618;1.8819;
578.7000;0.6634;1.8913;
579.0000;0.6618;1.8913;
579.3000;0.6618;1.8913;
579.6000;0.6642;1.9030;
579.9000;0.6634;1.9053;
580.2000;0.6626;1.9007;
580.5000;0.6626;1.9007;
580.8000;0.6610;1.8936;
581.1000;0.6618;1.8913;
581.4000;0.6642;1.8983;
581.7000;0.6626;1.8936;
582.0000;0.6569;1.8773;
582.3000;0.6634;1.8890;
582.6000;0.6626;1.8890;
582.9000;0.6626;1.8913;
583.2000;0.6626;1.8983;
583.5000;0.6642;1.8960;
583.8000;0.6650;1.8936;
584.1000;0.6602;1.8819;
584.4000;0.6650;1.8936;
584.7000;0.6626;1.8890;
585.0000;0.6626;1.8913;
585.3000;0.6642;1.8936;
585.6000;0.6642;1.8936;
585.9000;0.6642;1.8890;
586.2000;0.6642;1.8866;
586.5000;0.6650;1.8843;
586.8000;0.6634;1.8843;
587.1000;0.6667;1.8843;
587.4000;0.6642;1.8726;
587.7000;0.6626;1.8773;
588.0000;0.6618;1.8749;
588.3000;0.6650;1.8843;
588.6000;0.6626;1.8890;
588.9000;0.6634;1.8936;
589.2000;0.6667;1.9030;
589.5000;0.6650;1.8983;
589.8000;0.6610;1.8819;
590.1000;0.6602;1.8726;
590.4000;0.6634;1.8866;
590.7000;0.6634;1.8913;
591.0000;0.6618;1.8983;
591.3000;0.6650;1.9053;
591.6000;0.6618;1.8983;
591.9000;0.6626;1.8983;
592.2000;0.6642;1.8960;
592.5000;0.6634;1.8913;
592.8000;0.6618;1.8960;
593.1000;0.6593;1.8960;
593.4000;0.6634;1.8983;
593.7000;0.6634;1.9007;
594.0000;0.6626;1.9100;
594.3000;0.6634;1.9147;
594.6000;0.6626;1.9100;
594.9000;0.6642;1.9007;
595.2000;0.6618;1.8819;
595.5000;0.6650;1.8913;
595.8000;0.6634;1.8936;
596.1000;0.6577;1.8819;
596.4000;0.6724;1.9124;
596.7000;0.6593;1.8655;
597.0000;0.6618;1.8702;
597.3000;0.6650;1.8679;
597.6000;0.6626;1.8679;
597.9000;0.6610;1.8702;
598.2000;0.6650;1.8796;
598.5000;0.6675;1.8843;
598.8000;0.6634;1.8819;
599.1000;0.6618;1.8843;
599.4000;0.6602;1.8819;
599.7000;0.6626;1.8773;
600.0000;0.6634;1.8796;
600.3000;0.6593;1.8702;
600.6000;0.6577;1.8655;
600.9000;0.6479;1.8515;
601.2000;0.6390;1.8281;
601.5000;0.6357;1.8211;
601.8000;0.6195;1.7860;
602.1000;0.6056;1.7602;
602.4000;0.6015;1.7415;
602.7000;0.5893;1.6994;
603.0000;0.5836;1.6806;
603.3000;0.5771;1.6736;
603.6000;0.5698;1.6596;
603.9000;0.5657;1.6408;
604.2000;0.5592;1.6245;
604.5000;0.5543;1.6174;
604.8000;0.5511;1.6174;
605.1000;0.5478;1.6081;
605.4000;0.5454;1.5893;
605.7000;0.5389;1.5753;
606.0000;0.5356;1.5706;
606.3000;0.5332;1.5730;
606.6000;0.5291;1.5613;
606.9000;0.5267;1.5519;
607.2000;0.5234;1.5378;
607.5000;0.5218;1.5402;
607.8000;0.5201;1.5285;
608.1000;0.5169;1.5238;
608.4000;0.5161;1.5238;
608.7000;0.5128;1.5004;
609.0000;0.5120;1.5051;
609.3000;0.5079;1.5027;
609.6000;0.5079;1.5027;
609.9000;0.5055;1.4981;
610.2000;0.5047;1.4957;
610.5000;0.5031;1.5027;
610.8000;0.4998;1.4864;
611.1000;0.4998;1.4864;
611.4000;0.5006;1.4840;
611.7000;0.5022;1.4887;
612.0000;0.4965;1.4770;
612.3000;0.4957;1.4723;
612.6000;0.4957;1.4934;
612.9000;0.4933;1.4864;
613.2000;0.4892;1.4770;
613.5000;0.4974;1.4957;
613.8000;0.4876;1.4676;
614.1000;0.4908;1.4746;
614.4000;0.4835;1.4606;
614.7000;0.4835;1.4583;
615.0000;0.4794;1.4512;
615.3000;0.4827;1.4606;
615.6000;0.4729;1.4325;
615.9000;0.4811;1.4559;
616.2000;0.4811;1.4536;
616.5000;0.4803;1.4583;
616.8000;0.4900;1.4887;
617.1000;0.4803;1.4700;
617.4000;0.4770;1.4606;
617.7000;0.4786;1.4653;
618.0000;0.4754;1.4536;
618.3000;0.4754;1.4489;
618.6000;0.4737;1.4395;
618.9000;0.4803;1.4512;
619.2000;0.4721;1.4325;
619.5000;0.4737;1.4372;
619.8000;0.4721;1.4325;
620.1000;0.4705;1.4349;
620.4000;0.4737;1.4372;
620.7000;0.4713;1.4419;
621.0000;0.4713;1.4372;
621.3000;0.4737;1.4442;
621.6000;0.4672;1.4325;
621.9000;0.4689;1.4349;
622.2000;0.4583;1.4161;
622.5000;0.4672;1.4302;
622.8000;0.4664;1.4349;
623.1000;0.4681;1.4372;
623.4000;0.4656;1.4302;
623.7000;0.4656;1.4255;
624.0000;0.4681;1.4419;
624.3000;0.4754;1.4583;
624.6000;0.4656;1.4255;
624.9000;0.4664;1.4138;
625.2000;0.4632;1.4185;
625.5000;0.4656;1.4349;
625.8000;0.4656;1.4349;
626.1000;0.4648;1.4302;
626.4000;0.4656;1.4232;
626.7000;0.4648;1.4161;
627.0000;0.4689;1.4208;
627.3000;0.4624;1.4068;
627.6000;0.4640;1.4091;
627.9000;0.4648;1.4232;
628.2000;0.4624;1.4302;
628.5000;0.4599;1.4208;
628.8000;0.4591;1.4138;
629.1000;0.4632;1.4208;
629.4000;0.4624;1.4114;
629.7000;0.4607;1.4044;
630.0000;0.4542;1.3904;
630.3000;0.4558;1.3997;
630.6000;0.4607;1.4161;
630.9000;0.4558;1.4232;
631.2000;0.4583;1.4255;
631.5000;0.4607;1.4278;
631.8000;0.4591;1.4232;
632.1000;0.4615;1.4255;
632.4000;0.4615;1.4255;
632.7000;0.4567;1.4138;
633.0000;0.4510;1.3927;
633.3000;0.4575;1.4114;
633.6000;0.4558;1.4161;
633.9000;0.4599;1.4232;
634.2000;0.4567;1.4114;
634.5000;0.4591;1.4185;
634.8000;0.4518;1.3951;
635.1000;0.4550;1.4138;
635.4000;0.4526;1.4232;
635.7000;0.4550;1.4208;
636.0000;0.4583;1.4349;
636.3000;0.4567;1.4372;
636.6000;0.4558;1.4372;
636.9000;0.4542;1.4419;
637.2000;0.4558;1.4466;
637.5000;0.4550;1.4512;
637.8000;0.4526;1.4419;
638.1000;0.4542;1.4489;
638.4000;0.4591;1.4606;
638.7000;0.4485;1.4232;
639.0000;0.4477;1.4161;
639.3000;0.4518;1.4232;
639.6000;0.4558;1.4325;
639.9000;0.4501;1.4185;
640.2000;0.4501;1.4091;
640.5000;0.4510;1.4068;
640.8000;0.4518;1.4114;
641.1000;0.4518;1.4091;
641.4000;0.4469;1.4068;
641.7000;0.4518;1.4208;
642.0000;0.4526;1.4138;
642.3000;0.4501;1.4161;
642.6000;0.4501;1.4138;
642.9000;0.4501;1.4044;
643.2000;0.4501;1.4091;
643.5000;0.4501;1.4114;
643.8000;0.4493;1.4161;
644.1000;0.4485;1.4185;
644.4000;0.4485;1.4278;
644.7000;0.4493;1.4255;
645.0000;0.4477;1.4255;
645.3000;0.4501;1.4278;
645.6000;0.4485;1.4232;
645.9000;0.4477;1.4208;
646.2000;0.4493;1.4161;
646.5000;0.4453;1.4068;
646.8000;0.4469;1.4068;
647.1000;0.4469;1.4114;
647.4000;0.4485;1.4161;
647.7000;0.4469;1.4114;
648.0000;0.4469;1.4091;
648.3000;0.4493;1.4278;
648.6000;0.4477;1.4278;
648.9000;0.4453;1.4302;
649.2000;0.4469;1.4372;
649.5000;0.4461;1.4372;
649.8000;0.4477;1.4442;
650.1000;0.4501;1.4583;
650.4000;0.4453;1.4419;
650.7000;0.4444;1.4325;
651.0000;0.4453;1.4395;
651.3000;0.4371;1.4255;
651.6000;0.4453;1.4372;
651.9000;0.4461;1.4419;
652.2000;0.4461;1.4466;
652.5000;0.4444;1.4466;
652.8000;0.4444;1.4372;
653.1000;0.4436;1.4278;
653.4000;0.4396;1.4138;
653.7000;0.4436;1.4255;
654.0000;0.4420;1.4114;
654.3000;0.4306;1.3880;
654.6000;0.4412;1.4114;
654.9000;0.4396;1.4138;
655.2000;0.4420;1.4232;
655.5000;0.4420;1.4232;
655.8000;0.4428;1.4161;
656.1000;0.4444;1.4255;
656.4000;0.4420;1.4185;
656.7000;0.4428;1.4114;
657.0000;0.4428;1.4138;
657.3000;0.4436;1.4114;
657.6000;0.4469;1.4208;
657.9000;0.4404;1.4138;
658.2000;0.4420;1.4208;
658.5000;0.4420;1.4255;
658.8000;0.4412;1.4278;
659.1000;0.4396;1.4372;
659.4000;0.4298;1.4068;
659.7000;0.4347;1.4161;
660.0000;0.4396;1.4349;
660.3000;0.4396;1.4302;
660.6000;0.4461;1.4419;
660.9000;0.4387;1.4232;
661.2000;0.4412;1.4349;
661.5000;0.4404;1.4278;
661.8000;0.4322;1.4068;
662.1000;0.4412;1.4395;
662.4000;0.4420;1.4395;
662.7000;0.4436;1.4325;
663.0000;0.4379;1.4255;
663.3000;0.4387;1.4302;
663.6000;0.4396;1.4255;
663.9000;0.4387;1.4278;
664.2000;0.4412;1.4278;
664.5000;0.4379;1.4138;
664.8000;0.4396;1.4114;
665.1000;0.4404;1.4114;
665.4000;0.4387;1.4114;
665.7000;0.4396;1.4091;
666.0000;0.4404;1.4114;
666.3000;0.4387;1.4091;
666.6000;0.4396;1.4068;
666.9000;0.4387;1.4044;
667.2000;0.4387;1.3951;
667.5000;0.4396;1.3997;
667.8000;0.4387;1.4068;
668.1000;0.4396;1.4114;
668.4000;0.4363;1.4114;
668.7000;0.4387;1.4232;
669.0000;0.4355;1.4278;
669.3000;0.4379;1.4302;
669.6000;0.4363;1.4255;
669.9000;0.4363;1.4208;
670.2000;0.4371;1.4232;
670.5000;0.4363;1.4185;
670.8000;0.4379;1.4232;
671.1000;0.4371;1.4185;
671.4000;0.4347;1.4161;
671.7000;0.4387;1.4278;
672.0000;0.4379;1.4232;
672.3000;0.4355;1.4325;
672.6000;0.4387;1.4442;
672.9000;0.4355;1.4349;
673.2000;0.4387;1.4442;
673.5000;0.4355;1.4278;
673.8000;0.4363;1.4232;
674.1000;0.4355;1.4255;
674.4000;0.4347;1.4232;
674.7000;0.4306;1.4114;
675.0000;0.4355;1.4325;
675.3000;0.4379;1.4419;
675.6000;0.4363;1.4325;
675.9000;0.4363;1.4395;
676.2000;0.4355;1.4466;
676.5000;0.4363;1.4559;
676.8000;0.4347;1.4395;
677.1000;0.4363;1.4395;
677.4000;0.4355;1.4419;
677.7000;0.4339;1.4419;
678.0000;0.4339;1.4466;
678.3000;0.4371;1.4466;
678.6000;0.4347;1.4466;
678.9000;0.4355;1.4489;
679.2000;0.4363;1.4583;
679.5000;0.4339;1.4606;
679.8000;0.4330;1.4512;
680.1000;0.4355;1.4583;
680.4000;0.4347;1.4489;
680.7000;0.4355;1.4512;
681.0000;0.4355;1.4442;
681.3000;0.4347;1.4442;
681.6000;0.4339;1.4466;
681.9000;0.4347;1.4442;
682.2000;0.4339;1.4419;
682.5000;0.4339;1.4419;
682.8000;0.4387;1.4606;
683.1000;0.4330;1.4466;
683.4000;0.4330;1.4466;
683.7000;0.4330;1.4395;
684.0000;0.4330;1.4419;
684.3000;0.4330;1.4372;
684.6000;0.4314;1.4278;
684.9000;0.4363;1.4442;
685.2000;0.4314;1.4372;
685.5000;0.4330;1.4278;
685.8000;0.4330;1.4232;
686.1000;0.4322;1.4232;
686.4000;0.4322;1.4185;
686.7000;0.4322;1.4161;
687.0000;0.4387;1.4372;
687.3000;0.4298;1.4208;
687.6000;0.4306;1.4349;
687.9000;0.4298;1.4372;
688.2000;0.4290;1.4302;
688.5000;0.4298;1.4442;
688.8000;0.4322;1.4583;
689.1000;0.4363;1.4629;
689.4000;0.4330;1.4536;
689.7000;0.4314;1.4395;
690.0000;0.4282;1.4372;
690.3000;0.4339;1.4512;
690.6000;0.4314;1.4466;
690.9000;0.4306;1.4466;
691.2000;0.4298;1.4419;
691.5000;0.4290;1.4349;
691.8000;0.4306;1.4349;
692.1000;0.4314;1.4302;
692.4000;0.4314;1.4161;
692.7000;0.4290;1.4021;
693.0000;0.4306;1.4044;
693.3000;0.4322;1.4021;
693.6000;0.4306;1.3997;
693.9000;0.4298;1.4091;
694.2000;0.4290;1.4161;
694.5000;0.4298;1.4185;
694.8000;0.4257;1.4138;
695.1000;0.4314;1.4278;
695.4000;0.4306;1.4255;
695.7000;0.4298;1.4278;
696.0000;0.4306;1.4302;
696.3000;0.4298;1.4302;
696.6000;0.4298;1.4325;
696.9000;0.4298;1.4302;
697.2000;0.4306;1.4325;
697.5000;0.4298;1.4255;
697.8000;0.4282;1.4208;
698.1000;0.4306;1.4208;
698.4000;0.4290;1.4232;
698.7000;0.4298;1.4278;
699.0000;0.4257;1.4114;
699.3000;0.4306;1.4255;
699.6000;0.4379;1.4442;
699.9000;0.4282;1.4161;
700.2000;0.4282;1.4138;
700.5000;0.4314;1.4185;
700.8000;0.4290;1.4114;
701.1000;0.4306;1.4208;
701.4000;0.4290;1.4138;
701.7000;0.4274;1.4138;
702.0000;0.4282;1.4185;
702.3000;0.4282;1.4232;
702.6000;0.4290;1.4278;
702.9000;0.4274;1.4232;
703.2000;0.4274;1.4255;
703.5000;0.4282;1.4255;
703.8000;0.4282;1.4255;
704.1000;0.4282;1.4255;
704.4000;0.4274;1.4185;
704.7000;0.4290;1.4232;
705.0000;0.4249;1.4161;
705.3000;0.4257;1.4161;
705.6000;0.4257;1.4161;
705.9000;0.4274;1.4208;
706.2000;0.4265;1.4185;
706.5000;0.4363;1.4419;
706.8000;0.4225;1.4068;
707.1000;0.4274;1.4161;
707.4000;0.4290;1.4232;
707.7000;0.4265;1.4208;
708.0000;0.4265;1.4255;
708.3000;0.4265;1.4255;
708.6000;0.4322;1.4466;
708.9000;0.4274;1.4302;
709.2000;0.4249;1.4232;
709.5000;0.4371;1.4512;
709.8000;0.4265;1.4255;
710.1000;0.4274;1.4138;
710.4000;0.4257;1.4068;
710.7000;0.4257;1.4091;
711.0000;0.4282;1.4138;
711.3000;0.4282;1.4185;
711.6000;0.4241;1.4114;
711.9000;0.4257;1.4185;
712.2000;0.4265;1.4232;
712.5000;0.4217;1.4138;
712.8000;0.4265;1.4325;
713.1000;0.4274;1.4302;
713.4000;0.4274;1.4325;
713.7000;0.4274;1.4278;
714.0000;0.4265;1.4395;
714.3000;0.4274;1.4442;
714.6000;0.4265;1.4372;
714.9000;0.4265;1.4325;
715.2000;0.4249;1.4349;
715.5000;0.4249;1.4325;
715.8000;0.4265;1.4349;
716.1000;0.4282;1.4442;
716.4000;0.4265;1.4349;
716.7000;0.4265;1.4419;
717.0000;0.4249;1.4419;
717.3000;0.4265;1.4489;
717.6000;0.4233;1.4442;
717.9000;0.4249;1.4489;
718.2000;0.4241;1.4489;
718.5000;0.4233;1.4536;
718.8000;0.4241;1.4536;
719.1000;0.4192;1.4536;
719.4000;0.4241;1.4676;
719.7000;0.4241;1.4559;
720.0000;0.4241;1.4583;
720.3000;0.4233;1.4606;
720.6000;0.4257;1.4606;
720.9000;0.4241;1.4489;
721.2000;0.4249;1.4419;
721.5000;0.4192;1.4349;
721.8000;0.4241;1.4442;
722.1000;0.4233;1.4372;
722.4000;0.4274;1.4442;
722.7000;0.4347;1.4653;
723.0000;0.4225;1.4278;
723.3000;0.4241;1.4255;
723.6000;0.4274;1.4349;
723.9000;0.4265;1.4419;
724.2000;0.4257;1.4512;
724.5000;0.4257;1.4512;
724.8000;0.4249;1.4512;
725.1000;0.4160;1.4278;
725.4000;0.4225;1.4419;
725.7000;0.4225;1.4349;
726.0000;0.4241;1.4302;
726.3000;0.4225;1.4302;
726.6000;0.4249;1.4395;
726.9000;0.4249;1.4419;
727.2000;0.4249;1.4466;
727.5000;0.4225;1.4512;
727.8000;0.4282;1.4606;
728.1000;0.4225;1.4372;
728.4000;0.4233;1.4302;
728.7000;0.4200;1.4255;
729.0000;0.4233;1.4349;
729.3000;0.4241;1.4442;
729.6000;0.4257;1.4512;
729.9000;0.4225;1.4466;
730.2000;0.4274;1.4559;
730.5000;0.4249;1.4489;
730.8000;0.4265;1.4466;
731.1000;0.4233;1.4419;
731.4000;0.4282;1.4559;
731.7000;0.4168;1.4302;
732.0000;0.4208;1.4395;
732.3000;0.4160;1.4349;
732.6000;0.4208;1.4536;
732.9000;0.4217;1.4559;
733.2000;0.4208;1.4489;
733.5000;0.4290;1.4629;
733.8000;0.4274;1.4583;
734.1000;0.4241;1.4559;
734.4000;0.4249;1.4536;
734.7000;0.4217;1.4466;
735.0000;0.4225;1.4489;
735.3000;0.4225;1.4489;
735.6000;0.4225;1.4489;
735.9000;0.4217;1.4536;
736.2000;0.4217;1.4723;
736.5000;0.4217;1.4606;
736.8000;0.4225;1.4536;
737.1000;0.4208;1.4466;
737.4000;0.4249;1.4512;
737.7000;0.4233;1.4349;
738.0000;0.4208;1.4302;
738.3000;0.4217;1.4395;
738.6000;0.4225;1.4442;
738.9000;0.4225;1.4489;
739.2000;0.4249;1.4512;
739.5000;0.4225;1.4489;
739.8000;0.4200;1.4536;
740.1000;0.4265;1.4676;
740.4000;0.4225;1.4653;
740.7000;0.4225;1.4606;
741.0000;0.4217;1.4629;
741.3000;0.4225;1.4606;
741.6000;0.4241;1.4583;
741.9000;0.4233;1.4653;
742.2000;0.4160;1.4559;
742.5000;0.4184;1.4583;
742.8000;0.4217;1.4606;
743.1000;0.4225;1.4583;
743.4000;0.4233;1.4606;
743.7000;0.4208;1.4606;
744.0000;0.4217;1.4629;
744.3000;0.4192;1.4676;
744.6000;0.4225;1.4723;
744.9000;0.4192;1.4700;
745.2000;0.4192;1.4676;
745.5000;0.4217;1.4817;
745.8000;0.4200;1.4746;
746.1000;0.4192;1.4676;
746.4000;0.4200;1.4676;
746.7000;0.4200;1.4770;
747.0000;0.4200;1.4746;
747.3000;0.4274;1.4957;
747.6000;0.4184;1.4723;
747.9000;0.4217;1.4817;
748.2000;0.4192;1.4840;
748.5000;0.4208;1.4793;
748.8000;0.4192;1.4817;
749.1000;0.4249;1.4910;
749.4000;0.4217;1.4793;
749.7000;0.4208;1.4723;
750.0000;0.4184;1.4653;
750.3000;0.4208;1.4746;
750.6000;0.4225;1.4746;
750.9000;0.4192;1.4629;
751.2000;0.4225;1.4817;
751.5000;0.4225;1.4746;
751.8000;0.4168;1.4700;
752.1000;0.4200;1.4723;
752.4000;0.4225;1.4746;
752.7000;0.4192;1.4723;
753.0000;0.4265;1.4910;
753.3000;0.4192;1.4653;
753.6000;0.4200;1.4559;
753.9000;0.4208;1.4629;
754.2000;0.4192;1.4559;
754.5000;0.4217;1.4629;
754.8000;0.4192;1.4583;
755.1000;0.4200;1.4700;
755.4000;0.4184;1.4676;
755.7000;0.4208;1.4723;
756.0000;0.4176;1.4559;
756.3000;0.4184;1.4489;
756.6000;0.4184;1.4512;
756.9000;0.4184;1.4466;
757.2000;0.4208;1.4583;
757.5000;0.4200;1.4629;
757.8000;0.4200;1.4583;
758.1000;0.4176;1.4583;
758.4000;0.4176;1.4723;
758.7000;0.4192;1.4676;
759.0000;0.4200;1.4629;
759.3000;0.4225;1.4676;
759.6000;0.4184;1.4606;
759.9000;0.4192;1.4606;
760.2000;0.4208;1.4606;
760.5000;0.4184;1.4606;
760.8000;0.4168;1.4583;
761.1000;0.4208;1.4793;
761.4000;0.4176;1.4746;
761.7000;0.4192;1.4676;
762.0000;0.4184;1.4700;
762.3000;0.4143;1.4489;
762.6000;0.4184;1.4466;
762.9000;0.4200;1.4466;
763.2000;0.4119;1.4349;
763.5000;0.4184;1.4466;
763.8000;0.4184;1.4466;
764.1000;0.4184;1.4512;
764.4000;0.4168;1.4583;
764.7000;0.4168;1.4583;
765.0000;0.4192;1.4606;
765.3000;0.4241;1.4746;
765.6000;0.4160;1.4629;
765.9000;0.4168;1.4606;
766.2000;0.4192;1.4583;
766.5000;0.4184;1.4536;
766.8000;0.4176;1.4536;
767.1000;0.4168;1.4559;
767.4000;0.4176;1.4536;
767.7000;0.4176;1.4583;
768.0000;0.4160;1.4606;
768.3000;0.4192;1.4629;
768.6000;0.4192;1.4629;
768.9000;0.4176;1.4536;
769.2000;0.4176;1.4536;
769.5000;0.4200;1.4583;
769.8000;0.4168;1.4512;
770.1000;0.4151;1.4372;
770.4000;0.4160;1.4395;
770.7000;0.4176;1.4489;
771.0000;0.4184;1.4606;
771.3000;0.4176;1.4583;
771.6000;0.4168;1.4559;
771.9000;0.4184;1.4653;
772.2000;0.4184;1.4793;
772.5000;0.4184;1.4817;
772.8000;0.4184;1.4676;
773.1000;0.4176;1.4653;
773.4000;0.4151;1.4653;
773.7000;0.4176;1.4746;
774.0000;0.4168;1.4723;
774.3000;0.4160;1.4629;
774.6000;0.4168;1.4653;
774.9000;0.4176;1.4653;
775.2000;0.4192;1.4770;
775.5000;0.4168;1.4746;
775.8000;0.4168;1.4793;
776.1000;0.4160;1.4793;
776.4000;0.4168;1.4793;
776.7000;0.4151;1.4817;
777.0000;0.4168;1.4910;
777.3000;0.4160;1.4770;
777.6000;0.4151;1.4770;
777.9000;0.4143;1.4770;
778.2000;0.4176;1.4840;
778.5000;0.4151;1.4676;
778.8000;0.4151;1.4700;
779.1000;0.4151;1.4770;
779.4000;0.4062;1.4419;
779.7000;0.4151;1.4723;
780.0000;0.4176;1.4770;
780.3000;0.4176;1.4676;
780.6000;0.4103;1.4536;
780.9000;0.4151;1.4793;
781.2000;0.4192;1.4793;
781.5000;0.4168;1.4723;
781.8000;0.4151;1.4676;
782.1000;0.4151;1.4653;
782.4000;0.4143;1.4512;
782.7000;0.4160;1.4466;
783.0000;0.4160;1.4489;
783.3000;0.4151;1.4512;
783.6000;0.4160;1.4559;
783.9000;0.4160;1.4606;
784.2000;0.4160;1.4559;
784.5000;0.4168;1.4536;
784.8000;0.4168;1.4653;
785.1000;0.4143;1.4512;
785.4000;0.4168;1.4559;
785.7000;0.4168;1.4512;
786.0000;0.4168;1.4559;
786.3000;0.4143;1.4442;
786.6000;0.4151;1.4442;
786.9000;0.4192;1.4583;
787.2000;0.4168;1.4489;
787.5000;0.4119;1.4395;
787.8000;0.4151;1.4512;
788.1000;0.4168;1.4512;
788.4000;0.4070;1.4349;
788.7000;0.4143;1.4583;
789.0000;0.4160;1.4653;
789.3000;0.4160;1.4676;
789.6000;0.4160;1.4676;
789.9000;0.4176;1.4606;
790.2000;0.4151;1.4676;
790.5000;0.4111;1.4512;
790.8000;0.4143;1.4583;
791.1000;0.4135;1.4583;
791.4000;0.4143;1.4559;
791.7000;0.4208;1.4629;
792.0000;0.4151;1.4512;
792.3000;0.4127;1.4466;
792.6000;0.4143;1.4466;
792.9000;0.4127;1.4419;
793.2000;0.4143;1.4489;
793.5000;0.4200;1.4723;
793.8000;0.4143;1.4536;
794.1000;0.4160;1.4583;
794.4000;0.4119;1.4512;
794.7000;0.4143;1.4653;
795.0000;0.4151;1.4629;
795.3000;0.4168;1.4676;
795.6000;0.4135;1.4606;
795.9000;0.4160;1.4676;
796.2000;0.4151;1.4629;
796.5000;0.4192;1.4746;
796.8000;0.4119;1.4676;
797.1000;0.4151;1.4723;
797.4000;0.4127;1.4700;
797.7000;0.4143;1.4676;
798.0000;0.4160;1.4746;
798.3000;0.4151;1.4676;
798.6000;0.4135;1.4606;
798.9000;0.4151;1.4606;
799.2000;0.4143;1.4629;
799.5000;0.4119;1.4536;
799.8000;0.4143;1.4606;
800.1000;0.4151;1.4559;
800.4000;0.4168;1.4583;
800.7000;0.4103;1.4489;
801.0000;0.4151;1.4559;
801.3000;0.4143;1.4606;
801.6000;0.4143;1.4653;
801.9000;0.4135;1.4606;
802.2000;0.4135;1.4559;
802.5000;0.4217;1.4746;
802.8000;0.4257;1.4887;
803.1000;0.4200;1.4700;
803.4000;0.4143;1.4536;
803.7000;0.4168;1.4512;
804.0000;0.4070;1.4302;
804.3000;0.4135;1.4442;
804.6000;0.4176;1.4559;
804.9000;0.4192;1.4536;
805.2000;0.4176;1.4512;
805.5000;0.4160;1.4489;
805.8000;0.4135;1.4489;
806.1000;0.4103;1.4419;
806.4000;0.4143;1.4442;
806.7000;0.4143;1.4466;
807.0000;0.4151;1.4489;
807.3000;0.4127;1.4278;
807.6000;0.4127;1.4349;
807.9000;0.4143;1.4466;
808.2000;0.4127;1.4466;
808.5000;0.4135;1.4442;
808.8000;0.4135;1.4512;
809.1000;0.4160;1.4583;
809.4000;0.4013;1.4349;
809.7000;0.4143;1.4653;
810.0000;0.4143;1.4676;
810.3000;0.4143;1.4723;
810.6000;0.4135;1.4770;
810.9000;0.4143;1.4770;
811.2000;0.4160;1.4770;
811.5000;0.4103;1.4653;
811.8000;0.4160;1.4840;
812.1000;0.4127;1.4817;
812.4000;0.4143;1.4840;
812.7000;0.4135;1.4840;
813.0000;0.4127;1.4653;
813.3000;0.4135;1.4700;
813.6000;0.4127;1.4700;
813.9000;0.4119;1.4676;
814.2000;0.4135;1.4676;
814.5000;0.4103;1.4583;
814.8000;0.4127;1.4676;
815.1000;0.4135;1.4770;
815.4000;0.4086;1.4536;
815.7000;0.4143;1.4629;
816.0000;0.4127;1.4606;
816.3000;0.4143;1.4629;
816.6000;0.4135;1.4536;
816.9000;0.4143;1.4559;
817.2000;0.3997;1.4302;
817.5000;0.4103;1.4583;
817.8000;0.4135;1.4723;
818.1000;0.4127;1.4723;
818.4000;0.4046;1.4442;
818.7000;0.4143;1.4629;
819.0000;0.4143;1.4606;
819.3000;0.4135;1.4676;
819.6000;0.4094;1.4583;
819.9000;0.4127;1.4629;
820.2000;0.4078;1.4559;
820.5000;0.4078;1.4489;
820.8000;0.4135;1.4653;
821.1000;0.4111;1.4583;
821.4000;0.4111;1.4629;
821.7000;0.4119;1.4606;
822.0000;0.4151;1.4583;
822.3000;0.4127;1.4489;
822.6000;0.4127;1.4512;
822.9000;0.4143;1.4559;
823.2000;0.4127;1.4489;
823.5000;0.4135;1.4466;
823.8000;0.4127;1.4536;
824.1000;0.4119;1.4442;
824.4000;0.4119;1.4489;
824.7000;0.4143;1.4583;
825.0000;0.4094;1.4559;
825.3000;0.4135;1.4676;
825.6000;0.4021;1.4442;
825.9000;0.4135;1.4840;
826.2000;0.4086;1.4583;
826.5000;0.4119;1.4629;
826.8000;0.4119;1.4629;
827.1000;0.4127;1.4653;
827.4000;0.4127;1.4653;
827.7000;0.4094;1.4629;
828.0000;0.4119;1.4653;
828.3000;0.4111;1.4746;
828.6000;0.4037;1.4512;
828.9000;0.4111;1.4676;
829.2000;0.4094;1.4583;
829.5000;0.4119;1.4723;
829.8000;0.4094;1.4653;
830.1000;0.4070;1.4606;
830.4000;0.4119;1.4676;
830.7000;0.4135;1.4770;
831.0000;0.4103;1.4746;
831.3000;0.4160;1.4910;
831.6000;0.4127;1.4793;
831.9000;0.4119;1.4770;
832.2000;0.4119;1.4746;
832.5000;0.4119;1.4770;
832.8000;0.4103;1.4770;
833.1000;0.4119;1.4746;
833.4000;0.4111;1.4770;
833.7000;0.4111;1.4840;
834.0000;0.4119;1.4840;
834.3000;0.4119;1.4817;
834.6000;0.4127;1.4793;
834.9000;0.4111;1.4723;
835.2000;0.4168;1.4770;
835.5000;0.4119;1.4700;
835.8000;0.4135;1.4793;
836.1000;0.4127;1.4840;
836.4000;0.4127;1.4934;
836.7000;0.4127;1.4887;
837.0000;0.4103;1.4723;
837.3000;0.4103;1.4770;
837.6000;0.4086;1.4723;
837.9000;0.4119;1.4817;
838.2000;0.4103;1.4793;
838.5000;0.4151;1.4887;
838.8000;0.4103;1.4770;
839.1000;0.4184;1.4840;
839.4000;0.4054;1.4536;
839.7000;0.4103;1.4723;
840.0000;0.4127;1.4793;
840.3000;0.4111;1.4770;
840.6000;0.4094;1.4746;
840.9000;0.4094;1.4700;
841.2000;0.4119;1.4676;
841.5000;0.4021;1.4419;
841.8000;0.4111;1.4606;
842.1000;0.4013;1.4466;
842.4000;0.4103;1.4700;
842.7000;0.4103;1.4746;
843.0000;0.4127;1.4723;
843.3000;0.4103;1.4700;
843.6000;0.4160;1.4864;
843.9000;0.4119;1.4746;
844.2000;0.4160;1.4770;
844.5000;0.4119;1.4606;
844.8000;0.4143;1.4700;
845.1000;0.4111;1.4653;
845.4000;0.4143;1.4793;
845.7000;0.4094;1.4770;
846.0000;0.4135;1.4864;
846.3000;0.4094;1.4840;
846.6000;0.4208;1.5051;
846.9000;0.4103;1.4910;
847.2000;0.4111;1.4957;
847.5000;0.4086;1.4840;
847.8000;0.4127;1.4793;
848.1000;0.4078;1.4676;
848.4000;0.4103;1.4840;
848.7000;0.4111;1.4817;
849.0000;0.4094;1.4817;
849.3000;0.4111;1.4817;
849.6000;0.4143;1.4887;
849.9000;0.4143;1.4957;
850.2000;0.4119;1.4840;
850.5000;0.4127;1.4887;
850.8000;0.4103;1.4840;
851.1000;0.4086;1.4770;
851.4000;0.4103;1.4746;
851.7000;0.4111;1.4746;
852.0000;0.4103;1.4676;
852.3000;0.4103;1.4723;
852.6000;0.4111;1.4629;
852.9000;0.4119;1.4583;
853.2000;0.4119;1.4466;
853.5000;0.4103;1.4489;
853.8000;0.4111;1.4466;
854.1000;0.4029;1.4302;
854.4000;0.4111;1.4512;
854.7000;0.4103;1.4512;
855.0000;0.4111;1.4606;
855.3000;0.4103;1.4466;
855.6000;0.4111;1.4583;
855.9000;0.4119;1.4583;
856.2000;0.4111;1.4559;
856.5000;0.4119;1.4629;
856.8000;0.4127;1.4653;
857.1000;0.4119;1.4676;
857.4000;0.4135;1.4770;
857.7000;0.4111;1.4817;
858.0000;0.4119;1.4746;
858.3000;0.4111;1.4770;
858.6000;0.4094;1.4723;
858.9000;0.4111;1.4840;
859.2000;0.4103;1.4887;
859.5000;0.4111;1.4840;
859.8000;0.4078;1.4746;
860.1000;0.4078;1.4723;
860.4000;0.4119;1.4746;
860.7000;0.4103;1.4746;
861.0000;0.4094;1.4793;
861.3000;0.4119;1.4864;
861.6000;0.4103;1.4864;
861.9000;0.4103;1.4864;
862.2000;0.4111;1.4887;
862.5000;0.4217;1.5121;
862.8000;0.4135;1.4793;
863.1000;0.4094;1.4746;
863.4000;0.4103;1.4629;
863.7000;0.4103;1.4629;
864.0000;0.4103;1.4536;
864.3000;0.4111;1.4676;
864.6000;0.4111;1.4770;
864.9000;0.4094;1.4700;
865.2000;0.4078;1.4653;
865.5000;0.4119;1.4723;
865.8000;0.4086;1.4653;
866.1000;0.4135;1.4723;
866.4000;0.4111;1.4700;
866.7000;0.4111;1.4676;
867.0000;0.4143;1.4864;
867.3000;0.4119;1.4793;
867.6000;0.4086;1.4676;
867.9000;0.4119;1.4700;
868.2000;0.4119;1.4746;
868.5000;0.4103;1.4676;
868.8000;0.4119;1.4746;
869.1000;0.4086;1.4770;
869.4000;0.4103;1.4817;
869.7000;0.4103;1.4793;
870.0000;0.4094;1.4770;
870.3000;0.4103;1.4770;
870.6000;0.4111;1.4864;
870.9000;0.4086;1.4840;
871.2000;0.4094;1.4840;
871.5000;0.4086;1.4934;
871.8000;0.4111;1.5027;
872.1000;0.4103;1.4887;
872.4000;0.4103;1.4864;
872.7000;0.4005;1.4559;
873.0000;0.4103;1.4676;
873.3000;0.4078;1.4653;
873.6000;0.4070;1.4629;
873.9000;0.4127;1.4723;
874.2000;0.4111;1.4700;
874.5000;0.4094;1.4606;
874.8000;0.4103;1.4723;
875.1000;0.4062;1.4583;
875.4000;0.4086;1.4583;
875.7000;0.4103;1.4536;
876.0000;0.4135;1.4583;
876.3000;0.4078;1.4536;
876.6000;0.4086;1.4676;
876.9000;0.4111;1.4676;
877.2000;0.4160;1.4817;
877.5000;0.4094;1.4700;
877.8000;0.4086;1.4723;
878.1000;0.4103;1.4676;
878.4000;0.4151;1.4840;
878.7000;0.4086;1.4676;
879.0000;0.4094;1.4723;
879.3000;0.4078;1.4723;
879.6000;0.4094;1.4864;
879.9000;0.4103;1.4934;
880.2000;0.4094;1.5004;
880.5000;0.4078;1.4957;
880.8000;0.4111;1.4957;
881.1000;0.4168;1.5027;
881.4000;0.4094;1.4793;
881.7000;0.4078;1.4887;
882.0000;0.4094;1.4934;
882.3000;0.4094;1.4957;
882.6000;0.4094;1.4910;
882.9000;0.4094;1.4887;
883.2000;0.4111;1.4957;
883.5000;0.4111;1.4910;
883.8000;0.4078;1.4934;
884.1000;0.4078;1.5027;
884.4000;0.4086;1.5004;
884.7000;0.4119;1.4981;
885.0000;0.4103;1.4981;
885.3000;0.4135;1.5004;
885.6000;0.4078;1.4793;
885.9000;0.4094;1.4817;
886.2000;0.4094;1.4793;
886.5000;0.4013;1.4653;
886.8000;0.4094;1.4934;
887.1000;0.4078;1.4864;
887.4000;0.4094;1.4934;
887.7000;0.4078;1.4817;
888.0000;0.4094;1.4887;
888.3000;0.4119;1.4934;
888.6000;0.4094;1.4864;
888.9000;0.4103;1.4840;
889.2000;0.4086;1.4840;
889.5000;0.4119;1.4887;
889.8000;0.4094;1.4770;
890.1000;0.4046;1.4559;
890.4000;0.4103;1.4676;
890.7000;0.4111;1.4723;
891.0000;0.4119;1.4746;
891.3000;0.4094;1.4746;
891.6000;0.4103;1.4817;
891.9000;0.4111;1.4910;
892.2000;0.4078;1.4840;
892.5000;0.4094;1.4864;
892.8000;0.4094;1.4817;
893.1000;0.4086;1.4910;
893.4000;0.4094;1.4864;
893.7000;0.4094;1.4957;
894.0000;0.4086;1.4957;
894.3000;0.4086;1.4887;
894.6000;0.4046;1.4723;
894.9000;0.4086;1.4864;
895.2000;0.4103;1.5004;
895.5000;0.4078;1.4981;
895.8000;0.4086;1.5098;
896.1000;0.4086;1.5144;
896.4000;0.4037;1.5051;
896.7000;0.4103;1.5144;
897.0000;0.4086;1.5051;
897.3000;0.4094;1.5121;
897.6000;0.4078;1.5144;
897.9000;0.4086;1.5098;
898.2000;0.4111;1.5191;
898.5000;0.4086;1.5027;
898.8000;0.4094;1.5051;
899.1000;0.4078;1.5027;
899.4000;0.4168;1.5215;
899.7000;0.4070;1.4887;
900.0000;0.4078;1.4887;
900.3000;0.4078;1.4887;
900.6000;0.4078;1.4864;
900.9000;0.4086;1.4981;
901.2000;0.4070;1.4910;
901.5000;0.4078;1.4957;
901.8000;0.4103;1.5004;
902.1000;0.4078;1.4957;
902.4000;0.4054;1.4934;
902.7000;0.4078;1.4981;
903.0000;0.4094;1.5027;
903.3000;0.4086;1.5004;
903.6000;0.4094;1.4934;
903.9000;0.4078;1.4957;
904.2000;0.4094;1.4934;
904.5000;0.4070;1.4887;
904.8000;0.4086;1.4981;
905.1000;0.4111;1.5098;
905.4000;0.4078;1.5074;
905.7000;0.4070;1.5098;
906.0000;0.4094;1.5051;
906.3000;0.4094;1.5074;
906.6000;0.4086;1.5051;
906.9000;0.4086;1.4981;
907.2000;0.4094;1.5051;
907.5000;0.4070;1.4981;
907.8000;0.4078;1.4887;
908.1000;0.4094;1.4817;
908.4000;0.4086;1.4840;
908.7000;0.4127;1.4934;
909.0000;0.4103;1.4910;
909.3000;0.4086;1.4887;
909.6000;0.4078;1.4864;
909.9000;0.4119;1.4981;
910.2000;0.4143;1.5051;
910.5000;0.4094;1.4934;
910.8000;0.4103;1.4887;
911.1000;0.4086;1.4887;
911.4000;0.4013;1.4653;
911.7000;0.4094;1.4817;
912.0000;0.4086;1.4746;
912.3000;0.4046;1.4606;
912.6000;0.4005;1.4536;
912.9000;0.4078;1.4746;
913.2000;0.4127;1.4864;
913.5000;0.4070;1.4606;
913.8000;0.4094;1.4559;
914.1000;0.4078;1.4606;
914.4000;0.4094;1.4629;
914.7000;0.4119;1.4700;
915.0000;0.4037;1.4629;
915.3000;0.4094;1.4746;
915.6000;0.4111;1.4817;
915.9000;0.4086;1.4746;
916.2000;0.4078;1.4793;
916.5000;0.4103;1.4887;
916.8000;0.4062;1.4793;
917.1000;0.4078;1.4793;
917.4000;0.4070;1.4840;
917.7000;0.4062;1.4817;
918.0000;0.4103;1.4934;
918.3000;0.4094;1.5027;
918.6000;0.4143;1.5144;
918.9000;0.4094;1.4957;
919.2000;0.4094;1.4957;
919.5000;0.4094;1.4864;
919.8000;0.4070;1.4793;
920.1000;0.4078;1.4840;
920.4000;0.4037;1.4770;
920.7000;0.4086;1.4887;
921.0000;0.4070;1.4934;
921.3000;0.4062;1.4864;
921.6000;0.4078;1.4957;
921.9000;0.4078;1.4957;
922.2000;0.4070;1.4957;
922.5000;0.4094;1.4934;
922.8000;0.4078;1.4910;
923.1000;0.4086;1.4864;
923.4000;0.4103;1.4817;
923.7000;0.4103;1.4793;
924.0000;0.4103;1.4817;
924.3000;0.4111;1.4887;
924.6000;0.4086;1.4934;
924.9000;0.4070;1.4910;
925.2000;0.4127;1.5051;
925.5000;0.4078;1.4981;
925.8000;0.4103;1.5027;
926.1000;0.4070;1.4934;
926.4000;0.4021;1.4864;
926.7000;0.4054;1.4887;
927.0000;0.4078;1.4817;
927.3000;0.4070;1.4864;
927.6000;0.4086;1.4887;
927.9000;0.4070;1.4887;
928.2000;0.4070;1.4910;
928.5000;0.4070;1.4817;
928.8000;0.4078;1.4817;
929.1000;0.3989;1.4583;
929.4000;0.4078;1.4793;
929.7000;0.4046;1.4793;
930.0000;0.4086;1.4934;
930.3000;0.4062;1.4864;
930.6000;0.4103;1.5027;
930.9000;0.4078;1.4910;
931.2000;0.4054;1.4887;
931.5000;0.4168;1.5098;
931.8000;0.4054;1.4840;
932.1000;0.4103;1.4840;
932.4000;0.4062;1.4746;
932.7000;0.4054;1.4746;
933.0000;0.4062;1.4793;
933.3000;0.4086;1.4817;
933.6000;0.4070;1.4817;
933.9000;0.4086;1.4793;
934.2000;0.4078;1.4723;
934.5000;0.4054;1.4653;
934.8000;0.4062;1.4770;
935.1000;0.4070;1.4723;
935.4000;0.4086;1.4793;
935.7000;0.4054;1.4723;
936.0000;0.4062;1.4793;
936.3000;0.4103;1.4887;
936.6000;0.4111;1.4864;
936.9000;0.4062;1.4817;
937.2000;0.4070;1.4793;
937.5000;0.4094;1.4840;
937.8000;0.4070;1.4793;
938.1000;0.4062;1.4817;
938.4000;0.4029;1.4700;
938.7000;0.4070;1.4817;
939.0000;0.4070;1.4864;
939.3000;0.4086;1.4793;
939.6000;0.4046;1.4700;
939.9000;0.4078;1.4700;
940.2000;0.4070;1.4793;
940.5000;0.4086;1.4840;
940.8000;0.4086;1.4910;
941.1000;0.4070;1.4910;
941.4000;0.4070;1.4887;
941.7000;0.4070;1.4817;
942.0000;0.4070;1.4840;
942.3000;0.4054;1.4840;
942.6000;0.4135;1.4910;
942.9000;0.4054;1.4700;
943.2000;0.4086;1.4817;
943.5000;0.4062;1.4793;
943.8000;0.4094;1.4840;
944.1000;0.4119;1.4793;
944.4000;0.4078;1.4770;
944.7000;0.4184;1.5004;
945.0000;0.4046;1.4676;
945.3000;0.4062;1.4700;
945.6000;0.4086;1.4793;
945.9000;0.4078;1.4723;
946.2000;0.4119;1.4864;
946.5000;0.4078;1.4770;
946.8000;0.4062;1.4676;
947.1000;0.4094;1.4770;
947.4000;0.4086;1.4770;
947.7000;0.4078;1.4700;
948.0000;0.4070;1.4653;
948.3000;0.4111;1.4793;
948.6000;0.4086;1.4770;
948.9000;0.4062;1.4676;
949.2000;0.4062;1.4723;
949.5000;0.4062;1.4700;
949.8000;0.4103;1.4793;
950.1000;0.4062;1.4770;
950.4000;0.4078;1.4887;
950.7000;0.4046;1.4770;
951.0000;0.4086;1.4910;
951.3000;0.4070;1.4864;
951.6000;0.4054;1.4746;
951.9000;0.4046;1.4653;
952.2000;0.3989;1.4442;
952.5000;0.4094;1.4840;
952.8000;0.4054;1.4864;
953.1000;0.4078;1.5004;
953.4000;0.4086;1.5051;
953.7000;0.4078;1.5074;
954.0000;0.4086;1.5027;
954.3000;0.4111;1.5074;
954.6000;0.4062;1.5051;
954.9000;0.4054;1.4981;
955.2000;0.4054;1.4934;
955.5000;0.4029;1.4934;
955.8000;0.4070;1.4957;
956.1000;0.4086;1.4934;
956.4000;0.4070;1.4934;
956.7000;0.4046;1.4910;
957.0000;0.4005;1.4793;
957.3000;0.4005;1.4746;
957.6000;0.4029;1.4840;
957.9000;0.4062;1.4887;
958.2000;0.4062;1.4887;
958.5000;0.4070;1.4887;
958.8000;0.4094;1.4934;
959.1000;0.4078;1.4910;
959.4000;0.4070;1.4864;
959.7000;0.4070;1.4934;
960.0000;0.4103;1.5004;
960.3000;0.4037;1.4793;
960.6000;0.4078;1.4864;
960.9000;0.4078;1.4910;
961.2000;0.4062;1.4864;
961.5000;0.4094;1.4910;
961.8000;0.4070;1.4910;
962.1000;0.4086;1.4981;
962.4000;0.4078;1.5051;
962.7000;0.4037;1.4981;
963.0000;0.4037;1.4910;
963.3000;0.4062;1.4910;
963.6000;0.4070;1.4934;
963.9000;0.4070;1.4910;
964.2000;0.4119;1.4981;
964.5000;0.4070;1.4887;
964.8000;0.4070;1.5004;
965.1000;0.4086;1.5051;
965.4000;0.4037;1.4910;
965.7000;0.4127;1.5098;
966.0000;0.4094;1.5027;
966.3000;0.4070;1.4934;
966.6000;0.4070;1.4981;
966.9000;0.4046;1.4887;
967.2000;0.4094;1.4981;
967.5000;0.4070;1.4840;
967.8000;0.4054;1.4746;
968.1000;0.4062;1.4817;
968.4000;0.4062;1.4840;
968.7000;0.4070;1.4910;
969.0000;0.4029;1.4770;
969.3000;0.4070;1.4887;
969.6000;0.4070;1.4817;
969.9000;0.4070;1.4817;
970.2000;0.4037;1.4770;
970.5000;0.4070;1.4770;
970.8000;0.4078;1.4793;
971.1000;0.4086;1.4817;
971.4000;0.4054;1.4817;
971.7000;0.4070;1.4864;
972.0000;0.4046;1.4770;
972.3000;0.4037;1.4676;
972.6000;0.4062;1.4746;
972.9000;0.4046;1.4676;
973.2000;0.4029;1.4700;
973.5000;0.4021;1.4653;
973.8000;0.4054;1.4629;
974.1000;0.4062;1.4653;
974.4000;0.4062;1.4723;
974.7000;0.4029;1.4746;
975.0000;0.4054;1.4817;
975.3000;0.4086;1.4981;
975.6000;0.4037;1.4957;
975.9000;0.4037;1.4910;
976.2000;0.4029;1.4934;
976.5000;0.4062;1.5004;
976.8000;0.4054;1.4910;
977.1000;0.4054;1.4793;
977.4000;0.4046;1.4723;
977.7000;0.4054;1.4793;
978.0000;0.4062;1.4817;
978.3000;0.4111;1.4981;
978.6000;0.4062;1.4840;
978.9000;0.4078;1.4864;
979.2000;0.4078;1.4817;
979.5000;0.4062;1.4817;
979.8000;0.4054;1.4887;
980.1000;0.4086;1.4910;
980.4000;0.4086;1.4864;
980.7000;0.4070;1.4817;
981.0000;0.4070;1.4840;
981.3000;0.4094;1.4910;
981.6000;0.4062;1.4910;
981.9000;0.4054;1.4957;
982.2000;0.4078;1.5004;
982.5000;0.4054;1.4864;
982.8000;0.4070;1.4864;
983.1000;0.4086;1.4910;
983.4000;0.4078;1.4887;
983.7000;0.4127;1.4981;
984.0000;0.4086;1.4934;
984.3000;0.4135;1.5098;
984.6000;0.4070;1.4887;
984.9000;0.4086;1.4910;
985.2000;0.4046;1.4840;
985.5000;0.4070;1.4887;
985.8000;0.4037;1.4864;
986.1000;0.4062;1.4934;
986.4000;0.4070;1.4981;
986.7000;0.4070;1.5051;
987.0000;0.4054;1.4934;
987.3000;0.4062;1.4864;
987.6000;0.4046;1.4817;
987.9000;0.4070;1.4887;
988.2000;0.4037;1.4817;
988.5000;0.4046;1.4840;
988.8000;0.4062;1.4793;
989.1000;0.4070;1.4840;
989.4000;0.4062;1.4910;
989.7000;0.4070;1.4957;
990.0000;0.4046;1.5027;
990.3000;0.4029;1.5004;
990.6000;0.4070;1.5098;
990.9000;0.4062;1.5074;
991.2000;0.4046;1.5051;
991.5000;0.4078;1.5074;
991.8000;0.4054;1.4957;
992.1000;0.4070;1.5004;
992.4000;0.4046;1.4910;
992.7000;0.4021;1.4840;
993.0000;0.4086;1.4910;
993.3000;0.4070;1.4934;
993.6000;0.4046;1.4910;
993.9000;0.4046;1.4887;
994.2000;0.4103;1.4957;
994.5000;0.4046;1.4934;
994.8000;0.4054;1.4957;
995.1000;0.4086;1.4981;
995.4000;0.3997;1.4793;
995.7000;0.4046;1.4957;
996.0000;0.4037;1.5004;
996.3000;0.4037;1.4934;
996.6000;0.4070;1.5051;
996.9000;0.4062;1.5027;
997.2000;0.4070;1.5027;
997.5000;0.4054;1.4910;
997.8000;0.4070;1.4887;
998.1000;0.4062;1.4817;
998.4000;0.4054;1.4793;
998.7000;0.4086;1.4746;
999.0000;0.4046;1.4629;
999.3000;0.4046;1.4536;
999.6000;0.4037;1.4512;
999.9000;0.4062;1.4536;
1000.2000;0.4046;1.4536;
1000.5000;0.4046;1.4629;
1000.8000;0.4078;1.4746;
1001.1000;0.4062;1.4653;
1001.4000;0.4054;1.4653;
1001.7000;0.4054;1.4723;
1002.0000;0.4070;1.4723;
1002.3000;0.4070;1.4700;
1002.6000;0.4062;1.4700;
1002.9000;0.4046;1.4723;
1003.2000;0.4037;1.4840;
1003.5000;0.4054;1.4934;
1003.8000;0.4021;1.4957;
1004.1000;0.4062;1.5121;
1004.4000;0.4070;1.5121;
1004.7000;0.4070;1.5144;
1005.0000;0.4062;1.5121;
1005.3000;0.4054;1.5027;
1005.6000;0.4029;1.4887;
1005.9000;0.4062;1.4910;
1006.2000;0.4046;1.4910;
1006.5000;0.4062;1.4840;
1006.8000;0.4094;1.4981;
1007.1000;0.4070;1.4840;
1007.4000;0.4046;1.4746;
1007.7000;0.4046;1.4723;
1008.0000;0.4021;1.4746;
1008.3000;0.4078;1.4981;
1008.6000;0.4078;1.4957;
1008.9000;0.4054;1.4934;
1009.2000;0.3997;1.4770;
1009.5000;0.4062;1.4887;
1009.8000;0.4070;1.4910;
1010.1000;0.4054;1.4887;
1010.4000;0.4046;1.4864;
1010.7000;0.4046;1.4840;
1011.0000;0.4054;1.4864;
1011.3000;0.4046;1.4910;
1011.6000;0.4021;1.4770;
1011.9000;0.4070;1.4887;
1012.2000;0.3940;1.4606;
1012.5000;0.4062;1.4817;
1012.8000;0.4054;1.4840;
1013.1000;0.4037;1.4793;
1013.4000;0.4062;1.4793;
1013.7000;0.4046;1.4746;
1014.0000;0.3972;1.4536;
1014.3000;0.4037;1.4840;
1014.6000;0.4054;1.4817;
1014.9000;0.4070;1.4934;
1015.2000;0.4070;1.4957;
1015.5000;0.4054;1.5051;
1015.8000;0.4054;1.5051;
1016.1000;0.4062;1.5027;
1016.4000;0.4062;1.5051;
1016.7000;0.4062;1.4957;
1017.0000;0.4111;1.5051;
1017.3000;0.4070;1.4981;
1017.6000;0.4062;1.4934;
1017.9000;0.4062;1.5098;
1018.2000;0.3980;1.4793;
1018.5000;0.4054;1.5004;
1018.8000;0.4062;1.5051;
1019.1000;0.4054;1.5027;
1019.4000;0.4013;1.5004;
1019.7000;0.4046;1.5098;
1020.0000;0.4054;1.5098;
1020.3000;0.4054;1.5051;
1020.6000;0.4037;1.5051;
1020.9000;0.4054;1.5168;
1021.2000;0.4054;1.5098;
1021.5000;0.4054;1.5051;
1021.8000;0.4054;1.5121;
1022.1000;0.4062;1.5121;
1022.4000;0.4046;1.5027;
1022.7000;0.4070;1.5121;
1023.0000;0.4046;1.5074;
1023.3000;0.4062;1.5121;
1023.6000;0.4070;1.5098;
1023.9000;0.4021;1.4934;
1024.2000;0.4029;1.4957;
1024.5000;0.4013;1.5004;
1024.8000;0.4046;1.5121;
1025.1000;0.4054;1.5121;
1025.4000;0.4037;1.5074;
1025.7000;0.4005;1.4910;
1026.0000;0.4046;1.5027;
1026.3000;0.4054;1.5004;
1026.6000;0.4070;1.4957;
1026.9000;0.4070;1.4864;
1027.2000;0.4029;1.4746;
1027.5000;0.4046;1.4793;
1027.8000;0.4062;1.4817;
1028.1000;0.4054;1.4770;
1028.4000;0.3997;1.4606;
1028.7000;0.4054;1.4770;
1029.0000;0.4062;1.4840;
1029.3000;0.4029;1.4864;
1029.6000;0.4046;1.4934;
1029.9000;0.4103;1.5098;
1030.2000;0.4054;1.4934;
1030.5000;0.4046;1.5004;
1030.8000;0.4046;1.4957;
1031.1000;0.3980;1.4793;
1031.4000;0.4062;1.4957;
1031.7000;0.4046;1.4817;
1032.0000;0.4054;1.4840;
1032.3000;0.4070;1.4910;
1032.6000;0.4062;1.4934;
1032.9000;0.4054;1.4864;
1033.2000;0.4013;1.4817;
1033.5000;0.4037;1.4910;
1033.8000;0.4046;1.4910;
1034.1000;0.4086;1.5051;
1034.4000;0.4054;1.5074;
1034.7000;0.4037;1.5004;
1035.0000;0.4119;1.5027;
1035.3000;0.4005;1.4723;
1035.6000;0.4046;1.4793;
1035.9000;0.4046;1.4770;
1036.2000;0.4054;1.4864;
1036.5000;0.4070;1.4793;
1036.8000;0.4046;1.4723;
1037.1000;0.4029;1.4746;
1037.4000;0.4037;1.4770;
1037.7000;0.4062;1.4864;
1038.0000;0.4103;1.4981;
1038.3000;0.4054;1.4910;
1038.6000;0.4046;1.4887;
1038.9000;0.4070;1.4957;
1039.2000;0.4046;1.4864;
1039.5000;0.4005;1.4723;
1039.8000;0.4029;1.4746;
1040.1000;0.4046;1.4653;
1040.4000;0.4062;1.4653;
1040.7000;0.4054;1.4653;
1041.0000;0.4062;1.4793;
1041.3000;0.4029;1.4817;
1041.6000;0.4070;1.4910;
1041.9000;0.4046;1.4981;
1042.2000;0.4062;1.5051;
1042.5000;0.4021;1.5004;
1042.8000;0.4037;1.5004;
1043.1000;0.4013;1.4910;
1043.4000;0.4029;1.4981;
1043.7000;0.4021;1.4934;
1044.0000;0.4062;1.4910;
1044.3000;0.4037;1.4793;
1044.6000;0.4037;1.4817;
1044.9000;0.4037;1.4793;
1045.2000;0.4037;1.4910;
1045.5000;0.4046;1.4887;
1045.8000;0.4103;1.5051;
1046.1000;0.4054;1.4910;
1046.4000;0.4046;1.4887;
1046.7000;0.4046;1.4934;
1047.0000;0.4046;1.5004;
1047.3000;0.4078;1.5074;
1047.6000;0.4046;1.4887;
1047.9000;0.4062;1.4934;
1048.2000;0.4070;1.5027;
1048.5000;0.4037;1.5074;
1048.8000;0.4046;1.5074;
1049.1000;0.4046;1.5027;
1049.4000;0.4054;1.4934;
1049.7000;0.4037;1.4817;
1050.0000;0.4103;1.4887;
1050.3000;0.4013;1.4676;
1050.6000;0.4135;1.4910;
1050.9000;0.4046;1.4723;
1051.2000;0.4062;1.4887;
1051.5000;0.4054;1.4840;
1051.8000;0.4062;1.4864;
1052.1000;0.4078;1.4910;
1052.4000;0.4086;1.4864;
1052.7000;0.3989;1.4536;
1053.0000;0.4005;1.4606;
1053.3000;0.4029;1.4676;
1053.6000;0.4021;1.4840;
1053.9000;0.4037;1.4887;
1054.2000;0.3997;1.4700;
1054.5000;0.4037;1.4817;
1054.8000;0.4037;1.4887;
1055.1000;0.4037;1.4910;
1055.4000;0.4037;1.4934;
1055.7000;0.4029;1.4864;
1056.0000;0.4046;1.4770;
1056.3000;0.3997;1.4653;
1056.6000;0.4037;1.4700;
1056.9000;0.4046;1.4746;
1057.2000;0.3972;1.4676;
1057.5000;0.4046;1.4793;
1057.8000;0.3956;1.4653;
1058.1000;0.4037;1.4840;
1058.4000;0.4037;1.4864;
1058.7000;0.4111;1.5051;
1059.0000;0.4029;1.4817;
1059.3000;0.4029;1.4770;
1059.6000;0.4054;1.4864;
1059.9000;0.4054;1.4864;
1060.2000;0.4046;1.4864;
1060.5000;0.4062;1.4817;
1060.8000;0.4046;1.4887;
1061.1000;0.4046;1.4910;
1061.4000;0.4046;1.4981;
1061.7000;0.4070;1.5004;
1062.0000;0.4037;1.4981;
1062.3000;0.4054;1.4957;
1062.6000;0.4046;1.4887;
1062.9000;0.4046;1.4910;
1063.2000;0.4037;1.4934;
1063.5000;0.4062;1.5027;
1063.8000;0.4037;1.4887;
1064.1000;0.4070;1.4887;
1064.4000;0.4062;1.4746;
1064.7000;0.4054;1.4770;
1065.0000;0.4046;1.4723;
1065.3000;0.4029;1.4770;
1065.6000;0.4046;1.4770;
1065.9000;0.4046;1.4723;
1066.2000;0.4029;1.4793;
1066.5000;0.4054;1.4770;
1066.8000;0.4029;1.4700;
1067.1000;0.4021;1.4793;
1067.4000;0.4094;1.4981;
1067.7000;0.4037;1.4817;
1068.0000;0.4029;1.4793;
1068.3000;0.4046;1.4864;
1068.6000;0.4029;1.4981;
1068.9000;0.4054;1.5004;
1069.2000;0.4029;1.5027;
1069.5000;0.4054;1.5144;
1069.8000;0.4046;1.5098;
1070.1000;0.4005;1.5027;
1070.4000;0.3997;1.4934;
1070.7000;0.4029;1.5027;
1071.0000;0.4029;1.5004;
1071.3000;0.4103;1.5027;
1071.6000;0.4078;1.4934;
1071.9000;0.4037;1.4864;
1072.2000;0.4054;1.4957;
1072.5000;0.4078;1.5051;
1072.8000;0.4037;1.4887;
1073.1000;0.4054;1.5051;
1073.4000;0.4005;1.4934;
1073.7000;0.3989;1.4910;
1074.0000;0.4046;1.5074;
1074.3000;0.4046;1.5027;
1074.6000;0.4029;1.4910;
1074.9000;0.4078;1.5004;
1075.2000;0.4046;1.4934;
1075.5000;0.4046;1.4934;
1075.8000;0.4037;1.4934;
1076.1000;0.4046;1.4957;
1076.4000;0.4054;1.4981;
1076.7000;0.4054;1.4887;
1077.0000;0.4054;1.4934;
1077.3000;0.4070;1.4981;
1077.6000;0.4046;1.4887;
1077.9000;0.4037;1.4910;
1078.2000;0.4046;1.4840;
1078.5000;0.4054;1.4910;
1078.8000;0.4054;1.5004;
1079.1000;0.4062;1.5051;
1079.4000;0.4037;1.4910;
1079.7000;0.4046;1.5004;
1080.0000;0.4046;1.5074;
1080.3000;0.4013;1.5004;
1080.6000;0.4029;1.5074;
1080.9000;0.4054;1.5144;
1081.2000;0.4046;1.5098;
1081.5000;0.4070;1.5098;
1081.8000;0.4029;1.5004;
1082.1000;0.3980;1.4840;
1082.4000;0.4037;1.4957;
1082.7000;0.4037;1.4910;
1083.0000;0.4046;1.4934;
1083.3000;0.3989;1.4770;
1083.6000;0.4037;1.4981;
1083.9000;0.4046;1.4934;
1084.2000;0.4037;1.4934;
1084.5000;0.4046;1.4910;
1084.8000;0.4046;1.4887;
1085.1000;0.4070;1.4910;
1085.4000;0.4119;1.5004;
1085.7000;0.4013;1.4793;
1086.0000;0.4029;1.4887;
1086.3000;0.4054;1.5051;
1086.6000;0.4054;1.5027;
1086.9000;0.3980;1.4817;
1087.2000;0.4127;1.5215;
1087.5000;0.4094;1.5144;
1087.8000;0.4054;1.5051;
1088.1000;0.4037;1.5027;
1088.4000;0.4054;1.4934;
1088.7000;0.4037;1.4910;
1089.0000;0.4103;1.5027;
1089.3000;0.4111;1.4957;
1089.6000;0.4054;1.4817;
1089.9000;0.4046;1.4793;
1090.2000;0.4037;1.4887;
1090.5000;0.4029;1.4864;
1090.8000;0.4062;1.4887;
1091.1000;0.4054;1.4910;
1091.4000;0.4054;1.4934;
1091.7000;0.4062;1.4910;
1092.0000;0.4046;1.4934;
1092.3000;0.4037;1.4934;
1092.6000;0.4046;1.4934;
1092.9000;0.4046;1.4981;
1093.2000;0.4046;1.4934;
1093.5000;0.4029;1.4934;
1093.8000;0.4046;1.4934;
1094.1000;0.4046;1.4981;
1094.4000;0.4037;1.4910;
1094.7000;0.4021;1.4793;
1095.0000;0.4046;1.4864;
1095.3000;0.4054;1.4864;
1095.6000;0.4046;1.4840;
1095.9000;0.4037;1.4840;
1096.2000;0.4021;1.4817;
1096.5000;0.4046;1.5004;
1096.8000;0.4054;1.4957;
1097.1000;0.4029;1.4864;
1097.4000;0.4021;1.4840;
1097.7000;0.4046;1.4910;
1098.0000;0.4054;1.4957;
1098.3000;0.4029;1.5004;
1098.6000;0.4005;1.5051;
1098.9000;0.4037;1.5027;
1099.2000;0.4037;1.5004;
1099.5000;0.4054;1.5051;
1099.8000;0.4029;1.5004;
1100.1000;0.4029;1.5004;
1100.4000;0.4054;1.5027;
1100.7000;0.4046;1.5027;
1101.0000;0.4046;1.5051;
1101.3000;0.4054;1.5168;
1101.6000;0.3980;1.4864;
1101.9000;0.4037;1.5004;
1102.2000;0.4046;1.5074;
1102.5000;0.4046;1.5144;
1102.8000;0.4037;1.5121;
1103.1000;0.4013;1.5027;
1103.4000;0.4037;1.5074;
1103.7000;0.4070;1.5168;
1104.0000;0.4037;1.5004;
1104.3000;0.4078;1.5098;
1104.6000;0.4054;1.4934;
1104.9000;0.4037;1.4840;
1105.2000;0.4037;1.4746;
1105.5000;0.4054;1.4700;
1105.8000;0.4029;1.4700;
1106.1000;0.4046;1.4746;
1106.4000;0.4046;1.4700;
1106.7000;0.4054;1.4864;
1107.0000;0.4029;1.4817;
1107.3000;0.4054;1.4817;
1107.6000;0.4046;1.4887;
1107.9000;0.4005;1.4723;
1108.2000;0.4029;1.4723;
1108.5000;0.4046;1.4770;
1108.8000;0.4046;1.4676;
1109.1000;0.4078;1.4746;
1109.4000;0.4037;1.4676;
1109.7000;0.4062;1.4817;
1110.0000;0.4062;1.4887;
1110.3000;0.4054;1.5027;
1110.6000;0.4046;1.5027;
1110.9000;0.3964;1.4793;
1111.2000;0.4054;1.5051;
1111.5000;0.4086;1.5098;
1111.8000;0.4054;1.5004;
1112.1000;0.4054;1.4981;
1112.4000;0.4021;1.4981;
1112.7000;0.4046;1.5051;
1113.0000;0.4062;1.5121;
1113.3000;0.4037;1.5051;
1113.6000;0.4013;1.4934;
1113.9000;0.4054;1.4957;
1114.2000;0.4046;1.4934;
1114.5000;0.4037;1.4910;
1114.8000;0.4054;1.4934;
1115.1000;0.3964;1.4676;
1115.4000;0.4029;1.4770;
1115.7000;0.4046;1.4793;
1116.0000;0.4046;1.4770;
1116.3000;0.4086;1.4910;
1116.6000;0.3972;1.4770;
1116.9000;0.4037;1.4934;
1117.2000;0.4062;1.4957;
1117.5000;0.4029;1.5027;
1117.8000;0.4054;1.4981;
1118.1000;0.4046;1.4957;
1118.4000;0.4046;1.5027;
1118.7000;0.4037;1.4957;
1119.0000;0.4037;1.5004;
1119.3000;0.4046;1.4981;
1119.6000;0.4070;1.5144;
1119.9000;0.4046;1.5215;
1120.2000;0.3997;1.5004;
1120.5000;0.4037;1.5027;
1120.8000;0.4046;1.5098;
1121.1000;0.4029;1.5027;
1121.4000;0.4037;1.4981;
1121.7000;0.4037;1.4934;
1122.0000;0.4086;1.5004;
1122.3000;0.4054;1.4864;
1122.6000;0.4054;1.4864;
1122.9000;0.4062;1.4887;
1123.2000;0.4054;1.4910;
1123.5000;0.4037;1.4910;
1123.8000;0.4037;1.5004;
1124.1000;0.4046;1.4981;
1124.4000;0.4037;1.4981;
1124.7000;0.4046;1.4934;
1125.0000;0.4037;1.4910;
1125.3000;0.4021;1.4934;
1125.6000;0.4094;1.5121;
1125.9000;0.4086;1.5098;
1126.2000;0.4037;1.4934;
1126.5000;0.4029;1.4864;
1126.8000;0.4086;1.4934;
1127.1000;0.4054;1.4934;
1127.4000;0.4037;1.4934;
1127.7000;0.4037;1.4981;
1128.0000;0.4021;1.4957;
1128.3000;0.4037;1.4981;
1128.6000;0.4046;1.5051;
1128.9000;0.4029;1.5074;
1129.2000;0.4013;1.4981;
1129.5000;0.4037;1.5027;
1129.8000;0.4037;1.4934;
1130.1000;0.4046;1.4934;
1130.4000;0.4029;1.4887;
1130.7000;0.4062;1.5004;
1131.0000;0.4046;1.4981;
1131.3000;0.4054;1.5051;
1131.6000;0.4037;1.4981;
1131.9000;0.4029;1.5027;
1132.2000;0.4062;1.5074;
1132.5000;0.4046;1.5074;
1132.8000;0.4046;1.5051;
1133.1000;0.4029;1.4981;
1133.4000;0.4046;1.5027;
1133.7000;0.4037;1.4957;
1134.0000;0.4029;1.5004;
1134.3000;0.4037;1.4910;
1134.6000;0.4021;1.4957;
1134.9000;0.4037;1.5051;
1135.2000;0.4029;1.5027;
1135.5000;0.4037;1.5027;
1135.8000;0.4013;1.4981;
1136.1000;0.4021;1.4957;
1136.4000;0.3980;1.4817;
1136.7000;0.4070;1.5051;
1137.0000;0.4029;1.5027;
1137.3000;0.4037;1.5074;
1137.6000;0.4029;1.5098;
1137.9000;0.4062;1.5168;
1138.2000;0.3989;1.5027;
1138.5000;0.4054;1.5121;
1138.8000;0.4037;1.5051;
1139.1000;0.4070;1.5027;
1139.4000;0.4037;1.5004;
1139.7000;0.4029;1.5004;
1140.0000;0.4037;1.5027;
1140.3000;0.4046;1.5074;
1140.6000;0.4054;1.5098;
1140.9000;0.3956;1.4887;
1141.2000;0.4037;1.5098;
1141.5000;0.4103;1.5215;
1141.8000;0.4029;1.4910;
1142.1000;0.4005;1.4817;
1142.4000;0.3972;1.4676;
1142.7000;0.3997;1.4864;
1143.0000;0.4029;1.4887;
1143.3000;0.4046;1.4887;
1143.6000;0.4029;1.5004;
1143.9000;0.4046;1.5074;
1144.2000;0.4046;1.5121;
1144.5000;0.4037;1.5027;
1144.8000;0.4029;1.4981;
1145.1000;0.4021;1.4957;
1145.4000;0.4029;1.4957;
1145.7000;0.4037;1.5004;
1146.0000;0.4037;1.4957;
1146.3000;0.4070;1.5004;
1146.6000;0.4062;1.5051;
1146.9000;0.4094;1.5168;
1147.2000;0.4046;1.5074;
1147.5000;0.4046;1.5074;
1147.8000;0.4127;1.5238;
1148.1000;0.4037;1.5027;
1148.4000;0.4037;1.5027;
1148.7000;0.4021;1.5004;
1149.0000;0.4054;1.5121;
1149.3000;0.4135;1.5285;
1149.6000;0.4062;1.5051;
1149.9000;0.4103;1.5098;
1150.2000;0.4029;1.5027;
1150.5000;0.4046;1.5004;
1150.8000;0.4021;1.4887;
1151.1000;0.3997;1.4934;
1151.4000;0.4054;1.5027;
1151.7000;0.4037;1.4957;
1152.0000;0.4046;1.4981;
1152.3000;0.4062;1.5004;
1152.6000;0.4029;1.5027;
1152.9000;0.4037;1.5121;
1153.2000;0.4037;1.5051;
1153.5000;0.4054;1.5074;
1153.8000;0.4029;1.5098;
1154.1000;0.4021;1.5074;
1154.4000;0.4037;1.5074;
1154.7000;0.4046;1.5074;
1155.0000;0.4037;1.5027;
1155.3000;0.4054;1.4981;
1155.6000;0.4029;1.4981;
1155.9000;0.4029;1.5051;
1156.2000;0.4046;1.5144;
1156.5000;0.4046;1.5191;
1156.8000;0.4046;1.5191;
1157.1000;0.4046;1.5168;
1157.4000;0.4046;1.5168;
1157.7000;0.4046;1.5144;
1158.0000;0.4037;1.5168;
1158.3000;0.4037;1.4981;
1158.6000;0.4013;1.4864;
1158.9000;0.4021;1.4864;
1159.2000;0.4046;1.4910;
1159.5000;0.4037;1.5027;
1159.8000;0.4037;1.5004;
1160.1000;0.4037;1.5027;
1160.4000;0.4046;1.5074;
1160.7000;0.4046;1.5004;
1161.0000;0.4021;1.4864;
1161.3000;0.4046;1.4934;
1161.6000;0.4029;1.4840;
1161.9000;0.4021;1.4864;
1162.2000;0.4037;1.4957;
1162.5000;0.4013;1.4887;
1162.8000;0.4013;1.4887;
1163.1000;0.4029;1.4887;
1163.4000;0.4037;1.4934;
1163.7000;0.4029;1.4957;
1164.0000;0.4037;1.4981;
1164.3000;0.4021;1.4910;
1164.6000;0.4054;1.5004;
1164.9000;0.3964;1.4840;
1165.2000;0.4029;1.4887;
1165.5000;0.4135;1.5144;
1165.8000;0.4046;1.4981;
1166.1000;0.4046;1.4957;
1166.4000;0.4021;1.4934;
1166.7000;0.4037;1.4981;
1167.0000;0.4103;1.5074;
1167.3000;0.4062;1.4981;
1167.6000;0.4029;1.4887;
1167.9000;0.4046;1.4864;
1168.2000;0.4070;1.4934;
1168.5000;0.4078;1.4910;
1168.8000;0.3989;1.4723;
1169.1000;0.4062;1.4910;
1169.4000;0.4029;1.4934;
1169.7000;0.4037;1.4981;
1170.0000;0.3980;1.4793;
1170.3000;0.4029;1.4887;
1170.6000;0.3989;1.4840;
1170.9000;0.3948;1.4700;
1171.2000;0.4078;1.5004;
1171.5000;0.4013;1.4840;
1171.8000;0.4037;1.4934;
1172.1000;0.4029;1.4864;
1172.4000;0.4029;1.4817;
1172.7000;0.4046;1.4887;
1173.0000;0.4029;1.4864;
1173.3000;0.4029;1.4840;
1173.6000;0.3940;1.4676;
1173.9000;0.4029;1.4770;
1174.2000;0.4029;1.4746;
1174.5000;0.4037;1.4723;
1174.8000;0.4054;1.4770;
1175.1000;0.3989;1.4653;
1175.4000;0.4054;1.4793;
1175.7000;0.4005;1.4676;
1176.0000;0.4029;1.4676;
1176.3000;0.4046;1.4770;
1176.6000;0.4054;1.4793;
1176.9000;0.4046;1.4676;
1177.2000;0.4029;1.4653;
1177.5000;0.4037;1.4700;
1177.8000;0.4013;1.4653;
1178.1000;0.4103;1.4864;
1178.4000;0.4046;1.4676;
1178.7000;0.4021;1.4700;
1179.0000;0.4021;1.4723;
1179.3000;0.4029;1.4723;
1179.6000;0.4037;1.4700;
1179.9000;0.4062;1.4770;
1180.2000;0.4037;1.4723;
1180.5000;0.4029;1.4723;
1180.8000;0.4013;1.4746;
1181.1000;0.4037;1.4864;
1181.4000;0.4078;1.4957;
1181.7000;0.4021;1.4723;
1182.0000;0.4062;1.4793;
1182.3000;0.4021;1.4746;
1182.6000;0.4054;1.4864;
1182.9000;0.4013;1.4746;
1183.2000;0.4062;1.4887;
1183.5000;0.4094;1.5027;
1183.8000;0.4037;1.4910;
1184.1000;0.4029;1.4934;
1184.4000;0.4005;1.4910;
1184.7000;0.4013;1.4864;
1185.0000;0.4029;1.4981;
1185.3000;0.4021;1.4934;
1185.6000;0.4054;1.4910;
1185.9000;0.4046;1.4934;
1186.2000;0.4029;1.4910;
1186.5000;0.4005;1.5004;
1186.8000;0.4062;1.5027;
1187.1000;0.4005;1.4887;
1187.4000;0.4037;1.5027;
1187.7000;0.4037;1.4887;
1188.0000;0.4021;1.4887;
1188.3000;0.4029;1.4910;
1188.6000;0.4037;1.4840;
1188.9000;0.4054;1.4887;
1189.2000;0.4021;1.4887;
1189.5000;0.4029;1.4934;
1189.8000;0.4021;1.4910;
1190.1000;0.4029;1.4817;
1190.4000;0.4021;1.4864;
1190.7000;0.4021;1.4957;
1191.0000;0.4070;1.5051;
1191.3000;0.4046;1.5074;
1191.6000;0.4062;1.5027;
1191.9000;0.4021;1.4957;
1192.2000;0.4054;1.5004;
1192.5000;0.4037;1.4887;
1192.8000;0.4013;1.4770;
1193.1000;0.4037;1.4746;
1193.4000;0.4029;1.4723;
1193.7000;0.4005;1.4723;
1194.0000;0.3940;1.4606;
1194.3000;0.4046;1.4864;
1194.6000;0.4062;1.4864;
1194.9000;0.4029;1.4770;
1195.2000;0.4062;1.4910;
1195.5000;0.4029;1.4770;
1195.8000;0.4046;1.4793;
1196.1000;0.4054;1.4770;
1196.4000;0.4037;1.4770;
1196.7000;0.4037;1.4723;
1197.0000;0.4013;1.4676;
1197.3000;0.4037;1.4723;
1197.6000;0.4029;1.4629;
1197.9000;0.3989;1.4606;
1198.2000;0.4037;1.4887;
1198.5000;0.4021;1.4934;
1198.8000;0.3972;1.4817;
1199.1000;0.4029;1.4981;
1199.4000;0.4037;1.5004;
1199.7000;0.4111;1.5144;
1200.0000;0.4054;1.4957;
1200.3000;0.4070;1.5051;
1200.6000;0.4046;1.5074;
1200.9000;0.4037;1.5074;
1201.2000;0.4062;1.5121;
1201.5000;0.4013;1.5051;
1201.8000;0.4037;1.5051;
1202.1000;0.4021;1.5051;
1202.4000;0.4046;1.5144;
1202.7000;0.4029;1.5121;
1203.0000;0.4005;1.5098;
1203.3000;0.4070;1.5215;
1203.6000;0.4046;1.5098;
1203.9000;0.3997;1.4957;
1204.2000;0.4013;1.4934;
1204.5000;0.3932;1.4770;
1204.8000;0.4005;1.5004;
1205.1000;0.4037;1.5027;
1205.4000;0.4029;1.5004;
1205.7000;0.4021;1.5004;
1206.0000;0.4021;1.4957;
1206.3000;0.4046;1.5027;
1206.6000;0.3980;1.4840;
1206.9000;0.4021;1.4817;
1207.2000;0.4021;1.4864;
1207.5000;0.4054;1.4887;
1207.8000;0.4046;1.4817;
1208.1000;0.4005;1.4723;
1208.4000;0.4005;1.4629;
1208.7000;0.4054;1.4723;
1209.0000;0.4029;1.4700;
1209.3000;0.4037;1.4676;
1209.6000;0.4046;1.4676;
1209.9000;0.4029;1.4700;
1210.2000;0.4021;1.4817;
1210.5000;0.4029;1.4910;
1210.8000;0.4046;1.5004;
1211.1000;0.4037;1.4934;
1211.4000;0.4021;1.4887;
1211.7000;0.4029;1.4910;
1212.0000;0.4046;1.4934;
1212.3000;0.4029;1.4981;
1212.6000;0.4062;1.4934;
1212.9000;0.4037;1.4910;
1213.2000;0.4029;1.4864;
1213.5000;0.4021;1.4864;
1213.8000;0.4021;1.4840;
1214.1000;0.4029;1.4770;
1214.4000;0.4046;1.4723;
1214.7000;0.4029;1.4653;
1215.0000;0.4021;1.4676;
1215.3000;0.4037;1.4793;
1215.6000;0.4037;1.4864;
1215.9000;0.4029;1.4840;
1216.2000;0.4037;1.4910;
1216.5000;0.4029;1.4840;
1216.8000;0.4062;1.4864;
1217.1000;0.4029;1.4817;
1217.4000;0.4037;1.4864;
1217.7000;0.4029;1.4957;
1218.0000;0.4021;1.4910;
1218.3000;0.4029;1.4957;
1218.6000;0.4078;1.5074;
1218.9000;0.4029;1.4981;
1219.2000;0.4062;1.5121;
1219.5000;0.4005;1.4934;
1219.8000;0.3997;1.4910;
1220.1000;0.3989;1.4887;
1220.4000;0.4021;1.4981;
1220.7000;0.3980;1.4981;
1221.0000;0.3997;1.5004;
1221.3000;0.3972;1.4887;
1221.6000;0.4046;1.5051;
1221.9000;0.4021;1.4981;
1222.2000;0.4005;1.4981;
1222.5000;0.4037;1.4981;
1222.8000;0.4054;1.5004;
1223.1000;0.4054;1.5004;
1223.4000;0.4054;1.4957;
1223.7000;0.4046;1.4887;
1224.0000;0.4046;1.4910;
1224.3000;0.3997;1.4887;
1224.6000;0.4005;1.4910;
1224.9000;0.3997;1.4910;
1225.2000;0.4037;1.4981;
1225.5000;0.4021;1.4887;
1225.8000;0.4021;1.4887;
1226.1000;0.4013;1.4817;
1226.4000;0.4111;1.5074;
1226.7000;0.4021;1.4887;
1227.0000;0.4029;1.4864;
1227.3000;0.4046;1.4887;
1227.6000;0.4021;1.4864;
1227.9000;0.4021;1.4957;
1228.2000;0.4037;1.5027;
1228.5000;0.4029;1.5074;
1228.8000;0.4021;1.5098;
1229.1000;0.4046;1.5074;
1229.4000;0.4037;1.5027;
1229.7000;0.4013;1.4957;
1230.0000;0.4029;1.5074;
1230.3000;0.4078;1.5215;
1230.6000;0.4021;1.5051;
1230.9000;0.4021;1.5027;
1231.2000;0.4037;1.5004;
1231.5000;0.4037;1.5051;
1231.8000;0.4037;1.4957;
1232.1000;0.3940;1.4723;
1232.4000;0.3989;1.4817;
1232.7000;0.4021;1.4887;
1233.0000;0.4029;1.4887;
1233.3000;0.4021;1.4840;
1233.6000;0.4029;1.4887;
1233.9000;0.3980;1.4746;
1234.2000;0.4029;1.4910;
1234.5000;0.4078;1.5051;
1234.8000;0.4005;1.4817;
1235.1000;0.4021;1.4864;
1235.4000;0.4013;1.4840;
1235.7000;0.4005;1.4887;
1236.0000;0.4037;1.5027;
1236.3000;0.4013;1.4981;
1236.6000;0.4013;1.4981;
1236.9000;0.4029;1.5051;
1237.2000;0.4054;1.5098;
1237.5000;0.4046;1.5144;
1237.8000;0.4021;1.5051;
1238.1000;0.3989;1.4934;
1238.4000;0.4037;1.5004;
1238.7000;0.4029;1.4934;
1239.0000;0.4021;1.4957;
1239.3000;0.4037;1.5004;
1239.6000;0.4029;1.5004;
1239.9000;0.4021;1.5074;
1240.2000;0.4021;1.5098;
1240.5000;0.4119;1.5355;
1240.8000;0.4054;1.5168;
1241.1000;0.4054;1.5121;
1241.4000;0.4013;1.4910;
1241.7000;0.3972;1.4770;
1242.0000;0.4021;1.4887;
1242.3000;0.4037;1.4957;
1242.6000;0.4029;1.4934;
1242.9000;0.4029;1.4981;
1243.2000;0.4054;1.5098;
1243.5000;0.4062;1.5144;
1243.8000;0.3948;1.4793;
1244.1000;0.4021;1.4981;
1244.4000;0.4037;1.5027;
1244.7000;0.3980;1.4910;
1245.0000;0.4029;1.5074;
1245.3000;0.4013;1.5027;
1245.6000;0.4021;1.5027;
1245.9000;0.4070;1.5168;
1246.2000;0.4037;1.5051;
1246.5000;0.4013;1.4864;
1246.8000;0.4046;1.4934;
1247.1000;0.4029;1.4864;
1247.4000;0.4021;1.4793;
1247.7000;0.4029;1.4817;
1248.0000;0.4046;1.4817;
1248.3000;0.4046;1.4864;
1248.6000;0.4070;1.4840;
1248.9000;0.4046;1.4817;
1249.2000;0.4070;1.4887;
1249.5000;0.4046;1.4793;
1249.8000;0.4021;1.4746;
1250.1000;0.4021;1.4770;
1250.4000;0.4037;1.4723;
1250.7000;0.4021;1.4629;
1251.0000;0.4029;1.4676;
1251.3000;0.4029;1.4770;
1251.6000;0.4037;1.4793;
1251.9000;0.4013;1.4793;
1252.2000;0.4029;1.4840;
1252.5000;0.3972;1.4653;
1252.8000;0.4029;1.4676;
1253.1000;0.4037;1.4723;
1253.4000;0.4037;1.4700;
1253.7000;0.4029;1.4746;
1254.0000;0.4005;1.4723;
1254.3000;0.4037;1.4700;
1254.6000;0.4046;1.4723;
1254.9000;0.4070;1.4817;
1255.2000;0.4029;1.4559;
1255.5000;0.4013;1.4512;
1255.8000;0.4062;1.4629;
1256.1000;0.4046;1.4700;
1256.4000;0.4021;1.4723;
1256.7000;0.4094;1.4910;
1257.0000;0.4013;1.4723;
1257.3000;0.4054;1.4910;
1257.6000;0.4029;1.4840;
1257.9000;0.4176;1.5261;
1258.2000;0.4021;1.4910;
1258.5000;0.4021;1.4910;
1258.8000;0.4013;1.4817;
1259.1000;0.4013;1.4793;
1259.4000;0.4021;1.4793;
1259.7000;0.3940;1.4512;
1260.0000;0.4013;1.4746;
1260.3000;0.4021;1.4793;
1260.6000;0.4029;1.4746;
1260.9000;0.4070;1.4934;
1261.2000;0.4078;1.4910;
1261.5000;0.4021;1.4746;
1261.8000;0.3989;1.4723;
1262.1000;0.4119;1.5098;
1262.4000;0.4021;1.4934;
1262.7000;0.4062;1.5004;
1263.0000;0.4021;1.4840;
1263.3000;0.4029;1.4817;
1263.6000;0.4029;1.4817;
1263.9000;0.4029;1.4817;
1264.2000;0.4021;1.4723;
1264.5000;0.4013;1.4653;
1264.8000;0.4054;1.4700;
1265.1000;0.4037;1.4746;
1265.4000;0.4037;1.4793;
1265.7000;0.3964;1.4723;
1266.0000;0.4013;1.4957;
1266.3000;0.3997;1.4934;
1266.6000;0.4013;1.4864;
1266.9000;0.4005;1.4840;
1267.2000;0.3989;1.4887;
1267.5000;0.4021;1.4910;
1267.8000;0.4029;1.4840;
1268.1000;0.4037;1.4840;
1268.4000;0.4021;1.4840;
1268.7000;0.4005;1.4746;
1269.0000;0.4054;1.4910;
1269.3000;0.4013;1.4817;
1269.6000;0.4037;1.4793;
1269.9000;0.4029;1.4700;
1270.2000;0.4029;1.4629;
1270.5000;0.4029;1.4700;
1270.8000;0.4029;1.4770;
1271.1000;0.4005;1.4723;
1271.4000;0.4070;1.4887;
1271.7000;0.4029;1.4817;
1272.0000;0.3997;1.4817;
1272.3000;0.4005;1.4817;
1272.6000;0.4021;1.4864;
1272.9000;0.4037;1.4817;
1273.2000;0.4013;1.4723;
1273.5000;0.4070;1.4864;
1273.8000;0.4013;1.4864;
1274.1000;0.4037;1.4981;
1274.4000;0.3972;1.4887;
1274.7000;0.4021;1.5004;
1275.0000;0.4013;1.4981;
1275.3000;0.4005;1.5027;
1275.6000;0.4062;1.5027;
1275.9000;0.4029;1.4934;
1276.2000;0.4013;1.4887;
1276.5000;0.4029;1.4864;
1276.8000;0.4046;1.4910;
1277.1000;0.4021;1.4840;
1277.4000;0.3997;1.4793;
1277.7000;0.4021;1.4910;
1278.0000;0.4046;1.5027;
1278.3000;0.4054;1.4981;
1278.6000;0.4029;1.4910;
1278.9000;0.4054;1.4910;
1279.2000;0.4029;1.4840;
1279.5000;0.4021;1.4770;
1279.8000;0.4021;1.4817;
1280.1000;0.4037;1.4934;
1280.4000;0.4037;1.4934;
1280.7000;0.4021;1.4887;
1281.0000;0.4029;1.4910;
1281.3000;0.4086;1.5144;
1281.6000;0.4013;1.4981;
1281.9000;0.4021;1.4934;
1282.2000;0.3989;1.4746;
1282.5000;0.3915;1.4512;
1282.8000;0.4013;1.4793;
1283.1000;0.4021;1.4887;
1283.4000;0.3997;1.4793;
1283.7000;0.3972;1.4746;
1284.0000;0.4013;1.4817;
1284.3000;0.4029;1.4910;
1284.6000;0.4013;1.4770;
1284.9000;0.4021;1.4793;
1285.2000;0.4037;1.4840;
1285.5000;0.4021;1.4840;
1285.8000;0.4013;1.4887;
1286.1000;0.4021;1.4957;
1286.4000;0.4005;1.5004;
1286.7000;0.4013;1.5051;
1287.0000;0.4029;1.5051;
1287.3000;0.4013;1.4981;
1287.6000;0.4005;1.5027;
1287.9000;0.4013;1.4957;
1288.2000;0.4037;1.4981;
1288.5000;0.4029;1.4910;
1288.8000;0.3997;1.4864;
1289.1000;0.3972;1.4746;
1289.4000;0.4029;1.4817;
1289.7000;0.4046;1.4840;
1290.0000;0.4029;1.4864;
1290.3000;0.3980;1.4840;
1290.6000;0.4029;1.4910;
1290.9000;0.4013;1.4910;
1291.2000;0.4029;1.4887;
1291.5000;0.4021;1.4910;
1291.8000;0.4037;1.4910;
1292.1000;0.4029;1.4864;
1292.4000;0.4046;1.4864;
1292.7000;0.4005;1.4770;
1293.0000;0.4029;1.4840;
1293.3000;0.4005;1.4770;
1293.6000;0.4005;1.4700;
1293.9000;0.4021;1.4723;
1294.2000;0.4013;1.4840;
1294.5000;0.4037;1.5004;
1294.8000;0.4029;1.4981;
1295.1000;0.4021;1.4887;
1295.4000;0.4021;1.4770;
1295.7000;0.4029;1.4723;
1296.0000;0.4029;1.4817;
1296.3000;0.4037;1.4817;
1296.6000;0.3997;1.4770;
1296.9000;0.4037;1.4934;
1297.2000;0.3989;1.4746;
1297.5000;0.4029;1.4910;
1297.8000;0.4021;1.4817;
1298.1000;0.4021;1.4840;
1298.4000;0.4013;1.4840;
1298.7000;0.4013;1.4793;
1299.0000;0.4021;1.4746;
1299.3000;0.3997;1.4653;
1299.6000;0.4029;1.4793;
1299.9000;0.4021;1.4910;
1300.2000;0.4029;1.4934;
1300.5000;0.4037;1.4981;
1300.8000;0.4111;1.5261;
1301.1000;0.3980;1.5004;
1301.4000;0.4029;1.5098;
1301.7000;0.4029;1.5144;
1302.0000;0.4029;1.5121;
1302.3000;0.4029;1.5121;
1302.6000;0.4013;1.5027;
1302.9000;0.4029;1.4981;
1303.2000;0.4021;1.4910;
1303.5000;0.4021;1.4910;
1303.8000;0.4029;1.4887;
1304.1000;0.4013;1.4934;
1304.4000;0.4037;1.4957;
1304.7000;0.4046;1.4934;
1305.0000;0.4029;1.4957;
1305.3000;0.4021;1.4910;
1305.6000;0.4021;1.4887;
1305.9000;0.4021;1.4817;
1306.2000;0.3989;1.4723;
1306.5000;0.3997;1.4629;
1306.8000;0.4013;1.4606;
1307.1000;0.4021;1.4629;
1307.4000;0.4013;1.4606;
1307.7000;0.4021;1.4676;
1308.0000;0.4046;1.4793;
1308.3000;0.4037;1.4770;
1308.6000;0.4021;1.4700;
1308.9000;0.4013;1.4629;
1309.2000;0.4013;1.4606;
1309.5000;0.4021;1.4629;
1309.8000;0.4029;1.4629;
1310.1000;0.4029;1.4629;
1310.4000;0.4013;1.4653;
1310.7000;0.4005;1.4653;
1311.0000;0.3964;1.4583;
1311.3000;0.4005;1.4723;
1311.6000;0.3997;1.4723;
1311.9000;0.4029;1.4840;
1312.2000;0.4021;1.4817;
1312.5000;0.4021;1.4817;
1312.8000;0.4005;1.4817;
1313.1000;0.4029;1.4840;
1313.4000;0.4037;1.4910;
1313.7000;0.4037;1.4840;
1314.0000;0.4029;1.4723;
1314.3000;0.4062;1.4887;
1314.6000;0.4013;1.4817;
1314.9000;0.4037;1.4864;
1315.2000;0.4029;1.4864;
1315.5000;0.4021;1.4887;
1315.8000;0.4013;1.4770;
1316.1000;0.4070;1.4934;
1316.4000;0.4013;1.4910;
1316.7000;0.4021;1.4864;
1317.0000;0.4029;1.4887;
1317.3000;0.4037;1.5051;
1317.6000;0.4013;1.5051;
1317.9000;0.4013;1.5098;
1318.2000;0.4013;1.5074;
1318.5000;0.4029;1.5051;
1318.8000;0.4005;1.4910;
1319.1000;0.4021;1.4981;
1319.4000;0.4037;1.4910;
1319.7000;0.4013;1.4864;
1320.0000;0.4086;1.5074;
1320.3000;0.4021;1.4887;
1320.6000;0.4005;1.4840;
1320.9000;0.3997;1.4864;
1321.2000;0.4021;1.4934;
1321.5000;0.4029;1.4981;
1321.8000;0.3989;1.4910;
1322.1000;0.3997;1.4887;
1322.4000;0.4086;1.5098;
1322.7000;0.4021;1.4887;
1323.0000;0.3964;1.4770;
1323.3000;0.4070;1.5004;
1323.6000;0.4013;1.4887;
1323.9000;0.4021;1.4864;
1324.2000;0.4037;1.4957;
1324.5000;0.3980;1.4864;
1324.8000;0.4029;1.4887;
1325.1000;0.4037;1.4910;
1325.4000;0.4029;1.4864;
1325.7000;0.3972;1.4770;
1326.0000;0.3997;1.4864;
1326.3000;0.3997;1.4910;
1326.6000;0.4046;1.5074;
1326.9000;0.4021;1.5098;
1327.2000;0.4029;1.5027;
1327.5000;0.4029;1.5027;
1327.8000;0.4021;1.4957;
1328.1000;0.3997;1.4910;
1328.4000;0.4005;1.4957;
1328.7000;0.4005;1.5098;
1329.0000;0.4029;1.5168;
1329.3000;0.4013;1.5051;
1329.6000;0.4037;1.4910;
1329.9000;0.4054;1.4910;
1330.2000;0.4046;1.4887;
1330.5000;0.4013;1.4840;
1330.8000;0.4021;1.4840;
1331.1000;0.4005;1.4817;
1331.4000;0.4021;1.4793;
1331.7000;0.4046;1.4840;
1332.0000;0.4029;1.4910;
1332.3000;0.4013;1.4770;
1332.6000;0.4005;1.4723;
1332.9000;0.4037;1.4864;
1333.2000;0.4005;1.4723;
1333.5000;0.4013;1.4700;
1333.8000;0.4021;1.4700;
1334.1000;0.4127;1.5027;
1334.4000;0.4005;1.4629;
1334.7000;0.4013;1.4559;
1335.0000;0.3997;1.4536;
1335.3000;0.4029;1.4676;
1335.6000;0.4021;1.4700;
1335.9000;0.4021;1.4770;
1336.2000;0.4013;1.4793;
1336.5000;0.4029;1.4864;
1336.8000;0.4046;1.4840;
1337.1000;0.4037;1.4723;
1337.4000;0.4021;1.4723;
1337.7000;0.4021;1.4700;
1338.0000;0.4029;1.4746;
1338.3000;0.3972;1.4700;
1338.6000;0.4046;1.4840;
1338.9000;0.4029;1.4840;
1339.2000;0.4029;1.4864;
1339.5000;0.4005;1.4840;
1339.8000;0.4013;1.4957;
1340.1000;0.3997;1.4957;
1340.4000;0.4029;1.4957;
1340.7000;0.4021;1.4910;
1341.0000;0.4029;1.4864;
1341.3000;0.4005;1.4770;
1341.6000;0.4005;1.4723;
1341.9000;0.4021;1.4840;
1342.2000;0.4029;1.4840;
1342.5000;0.4021;1.4864;
1342.8000;0.4005;1.4864;
1343.1000;0.4021;1.4864;
1343.4000;0.4062;1.4840;
1343.7000;0.4029;1.4676;
1344.0000;0.4029;1.4723;
1344.3000;0.4013;1.4653;
1344.6000;0.4005;1.4606;
1344.9000;0.4013;1.4700;
1345.2000;0.4005;1.4746;
1345.5000;0.4021;1.4840;
1345.8000;0.4062;1.5027;
1346.1000;0.4005;1.4864;
1346.4000;0.4013;1.4981;
1346.7000;0.4021;1.4934;
1347.0000;0.4029;1.4934;
1347.3000;0.4005;1.4910;
1347.6000;0.4013;1.4793;
1347.9000;0.4013;1.4793;
1348.2000;0.4013;1.4793;
1348.5000;0.4021;1.4770;
1348.8000;0.4021;1.4653;
1349.1000;0.4021;1.4700;
1349.4000;0.3964;1.4700;
1349.7000;0.4037;1.4840;
1350.0000;0.4046;1.4887;
1350.3000;0.4029;1.4817;
1350.6000;0.4054;1.4934;
1350.9000;0.4037;1.4934;
1351.2000;0.4029;1.4864;
1351.5000;0.4013;1.4864;
1351.8000;0.3940;1.4629;
1352.1000;0.4103;1.5004;
1352.4000;0.4029;1.4887;
1352.7000;0.4029;1.4887;
1353.0000;0.4005;1.4887;
1353.3000;0.4046;1.4934;
1353.6000;0.4029;1.4864;
1353.9000;0.4029;1.4887;
1354.2000;0.4021;1.4864;
1354.5000;0.4021;1.4840;
1354.8000;0.4013;1.4746;
1355.1000;0.4037;1.4793;
1355.4000;0.4013;1.4723;
1355.7000;0.4046;1.4840;
1356.0000;0.4021;1.4817;
1356.3000;0.3997;1.4864;
1356.6000;0.3972;1.4746;
1356.9000;0.4029;1.4887;
1357.2000;0.4021;1.4864;
1357.5000;0.4005;1.4864;
1357.8000;0.4029;1.4934;
1358.1000;0.4021;1.4957;
1358.4000;0.4021;1.5004;
1358.7000;0.4029;1.4934;
1359.0000;0.4070;1.5074;
1359.3000;0.4029;1.4910;
1359.6000;0.4021;1.4840;
1359.9000;0.4029;1.4864;
1360.2000;0.4005;1.4910;
1360.5000;0.4029;1.5004;
1360.8000;0.4046;1.5098;
1361.1000;0.4094;1.5168;
1361.4000;0.4005;1.4934;
1361.7000;0.4037;1.4887;
1362.0000;0.4021;1.4864;
1362.3000;0.4021;1.4864;
1362.6000;0.4021;1.4793;
1362.9000;0.4013;1.4817;
1363.2000;0.4005;1.4817;
1363.5000;0.4029;1.4770;
1363.8000;0.4046;1.4746;
1364.1000;0.4046;1.4653;
1364.4000;0.4021;1.4653;
1364.7000;0.4054;1.4793;
1365.0000;0.4013;1.4793;
1365.3000;0.4054;1.4770;
1365.6000;0.4021;1.4676;
1365.9000;0.4062;1.4700;
1366.2000;0.4021;1.4629;
1366.5000;0.4029;1.4653;
1366.8000;0.4021;1.4583;
1367.1000;0.4021;1.4700;
1367.4000;0.4029;1.4770;
1367.7000;0.4029;1.4817;
1368.0000;0.4037;1.4793;
1368.3000;0.4046;1.4700;
1368.6000;0.4029;1.4653;
1368.9000;0.3989;1.4606;
1369.2000;0.4037;1.4817;
1369.5000;0.4021;1.4793;
1369.8000;0.4037;1.4793;
1370.1000;0.4013;1.4746;
1370.4000;0.4005;1.4700;
1370.7000;0.4021;1.4770;
1371.0000;0.4005;1.4723;
1371.3000;0.4021;1.4723;
1371.6000;0.4029;1.4723;
1371.9000;0.4070;1.4770;
1372.2000;0.4021;1.4606;
1372.5000;0.3980;1.4583;
1372.8000;0.4005;1.4653;
1373.1000;0.4005;1.4653;
1373.4000;0.4013;1.4653;
1373.7000;0.4029;1.4746;
1374.0000;0.4013;1.4653;
1374.3000;0.4005;1.4583;
1374.6000;0.3989;1.4629;
1374.9000;0.4029;1.4723;
1375.2000;0.4021;1.4700;
1375.5000;0.4005;1.4676;
1375.8000;0.4021;1.4723;
1376.1000;0.4029;1.4793;
1376.4000;0.4037;1.4746;
1376.7000;0.4021;1.4817;
1377.0000;0.4013;1.4793;
1377.3000;0.4005;1.4817;
1377.6000;0.4021;1.4817;
1377.9000;0.4078;1.5004;
1378.2000;0.3964;1.4700;
1378.5000;0.4013;1.4817;
1378.8000;0.4013;1.4723;
1379.1000;0.4054;1.4700;
1379.4000;0.4005;1.4559;
1379.7000;0.3989;1.4606;
1380.0000;0.4005;1.4700;
1380.3000;0.4013;1.4770;
1380.6000;0.4021;1.4746;
1380.9000;0.4013;1.4700;
1381.2000;0.3964;1.4676;
1381.5000;0.3972;1.4770;
1381.8000;0.4005;1.4840;
1382.1000;0.4013;1.4793;
1382.4000;0.4062;1.4817;
1382.7000;0.4013;1.4723;
1383.0000;0.4021;1.4629;
1383.3000;0.3980;1.4512;
1383.6000;0.4021;1.4559;
1383.9000;0.4029;1.4653;
1384.2000;0.4037;1.4676;
1384.5000;0.4005;1.4700;
1384.8000;0.3923;1.4583;
1385.1000;0.4046;1.4934;
1385.4000;0.4029;1.4981;
1385.7000;0.4029;1.5004;
1386.0000;0.4013;1.5027;
1386.3000;0.4029;1.4957;
1386.6000;0.4029;1.5004;
1386.9000;0.3972;1.4817;
1387.2000;0.4021;1.4934;
1387.5000;0.3997;1.4981;
1387.8000;0.4021;1.4934;
1388.1000;0.3997;1.4910;
1388.4000;0.3989;1.4887;
1388.7000;0.4021;1.4957;
1389.0000;0.4029;1.4981;
1389.3000;0.4013;1.4817;
1389.6000;0.4005;1.4817;
1389.9000;0.4029;1.4887;
1390.2000;0.4021;1.4910;
1390.5000;0.4013;1.4910;
1390.8000;0.4021;1.4934;
1391.1000;0.4029;1.4840;
1391.4000;0.4021;1.4840;
1391.7000;0.4037;1.4887;
1392.0000;0.4037;1.4793;
1392.3000;0.4037;1.4793;
1392.6000;0.4029;1.4864;
1392.9000;0.4021;1.4793;
1393.2000;0.4013;1.4676;
1393.5000;0.4021;1.4840;
1393.8000;0.4013;1.4957;
1394.1000;0.4037;1.4864;
1394.4000;0.4021;1.4817;
1394.7000;0.4013;1.4770;
1395.0000;0.4021;1.4840;
1395.3000;0.4029;1.4864;
1395.6000;0.4005;1.4700;
1395.9000;0.4037;1.4700;
1396.2000;0.4005;1.4606;
1396.5000;0.4037;1.4700;
1396.8000;0.4013;1.4606;
1397.1000;0.4013;1.4629;
1397.4000;0.4021;1.4629;
1397.7000;0.4062;1.4770;
1398.0000;0.4013;1.4746;
1398.3000;0.4005;1.4723;
1398.6000;0.4005;1.4770;
1398.9000;0.4021;1.4817;
1399.2000;0.4021;1.4910;
1399.5000;0.4013;1.4887;
1399.8000;0.4013;1.4910;
