time/ms;Fluo/V;P700 deltaI/I x10³;
-199.8000;0.3997;1.1984;
-199.5000;0.4013;1.2101;
-199.2000;0.3956;1.1961;
-198.9000;0.4021;1.2148;
-198.6000;0.4037;1.2242;
-198.3000;0.4046;1.2312;
-198.0000;0.4029;1.2265;
-197.7000;0.4046;1.2265;
-197.4000;0.4037;1.2312;
-197.1000;0.4127;1.2546;
-196.8000;0.4037;1.2336;
-196.5000;0.4062;1.2336;
-196.2000;0.4013;1.2242;
-195.9000;0.4037;1.2289;
-195.6000;0.4054;1.2359;
-195.3000;0.4054;1.2336;
-195.0000;0.4046;1.2359;
-194.7000;0.4046;1.2359;
-194.4000;0.4054;1.2406;
-194.1000;0.4029;1.2312;
-193.8000;0.4037;1.2289;
-193.5000;0.4029;1.2289;
-193.2000;0.3948;1.2078;
-192.9000;0.4086;1.2359;
-192.6000;0.4054;1.2195;
-192.3000;0.4054;1.2219;
-192.0000;0.4054;1.2219;
-191.7000;0.4046;1.2219;
-191.4000;0.4054;1.2172;
-191.1000;0.4054;1.2148;
-190.8000;0.4054;1.2195;
-190.5000;0.4078;1.2242;
-190.2000;0.4160;1.2499;
-189.9000;0.4111;1.2265;
-189.6000;0.4021;1.1984;
-189.3000;0.4029;1.1938;
-189.0000;0.3997;1.1891;
-188.7000;0.4029;1.1984;
-188.4000;0.4021;1.1961;
-188.1000;0.4037;1.1984;
-187.8000;0.4054;1.2031;
-187.5000;0.4127;1.2219;
-187.2000;0.4160;1.2195;
-186.9000;0.4078;1.2101;
-186.6000;0.4046;1.2055;
-186.3000;0.4005;1.1938;
-186.0000;0.4046;1.2008;
-185.7000;0.4054;1.2055;
-185.4000;0.4037;1.1914;
-185.1000;0.4037;1.2008;
-184.8000;0.4046;1.1961;
-184.5000;0.4037;1.1984;
-184.2000;0.4054;1.2031;
-183.9000;0.4037;1.2148;
-183.6000;0.4070;1.2242;
-183.3000;0.4013;1.2242;
-183.0000;0.4029;1.2265;
-182.7000;0.4029;1.2195;
-182.4000;0.4005;1.2172;
-182.1000;0.4046;1.2242;
-181.8000;0.4021;1.2195;
-181.5000;0.4046;1.2242;
-181.2000;0.4070;1.2289;
-180.9000;0.4037;1.2125;
-180.6000;0.4046;1.2219;
-180.3000;0.4029;1.2125;
-180.0000;0.4037;1.2195;
-179.7000;0.4054;1.2265;
-179.4000;0.4054;1.2336;
-179.1000;0.4037;1.2219;
-178.8000;0.4054;1.2289;
-178.5000;0.4046;1.2336;
-178.2000;0.4037;1.2406;
-177.9000;0.4037;1.2382;
-177.6000;0.4054;1.2382;
-177.3000;0.4054;1.2336;
-177.0000;0.4054;1.2265;
-176.7000;0.4037;1.2195;
-176.4000;0.4046;1.2195;
-176.1000;0.4094;1.2312;
-175.8000;0.4054;1.2219;
-175.5000;0.4046;1.2242;
-175.2000;0.4013;1.2101;
-174.9000;0.4029;1.2265;
-174.6000;0.4013;1.2242;
-174.3000;0.4054;1.2265;
-174.0000;0.4070;1.2242;
-173.7000;0.4046;1.2219;
-173.4000;0.4046;1.2265;
-173.1000;0.4054;1.2312;
-172.8000;0.4021;1.2242;
-172.5000;0.4046;1.2382;
-172.2000;0.4062;1.2359;
-171.9000;0.4046;1.2219;
-171.6000;0.4054;1.2219;
-171.3000;0.4046;1.2219;
-171.0000;0.4046;1.2265;
-170.7000;0.4046;1.2148;
-170.4000;0.4037;1.2219;
-170.1000;0.4013;1.2172;
-169.8000;0.4062;1.2148;
-169.5000;0.4062;1.2078;
-169.2000;0.4046;1.2148;
-168.9000;0.4046;1.2265;
-168.6000;0.4070;1.2242;
-168.3000;0.4046;1.2242;
-168.0000;0.4013;1.2125;
-167.7000;0.4046;1.2219;
-167.4000;0.4062;1.2195;
-167.1000;0.4029;1.2125;
-166.8000;0.3989;1.2078;
-166.5000;0.4054;1.2219;
-166.2000;0.4078;1.2312;
-165.9000;0.4054;1.2219;
-165.6000;0.4127;1.2312;
-165.3000;0.4029;1.2031;
-165.0000;0.4046;1.2055;
-164.7000;0.4054;1.2101;
-164.4000;0.4054;1.2101;
-164.1000;0.4029;1.2055;
-163.8000;0.4054;1.2031;
-163.5000;0.4054;1.1984;
-163.2000;0.4054;1.1961;
-162.9000;0.4086;1.2101;
-162.6000;0.4037;1.1961;
-162.3000;0.4054;1.2078;
-162.0000;0.4037;1.2055;
-161.7000;0.4054;1.2101;
-161.4000;0.4013;1.2148;
-161.1000;0.4070;1.2359;
-160.8000;0.4054;1.2219;
-160.5000;0.4094;1.2265;
-160.2000;0.4046;1.2101;
-159.9000;0.4021;1.2172;
-159.6000;0.3940;1.1914;
-159.3000;0.4013;1.2172;
-159.0000;0.4054;1.2195;
-158.7000;0.4054;1.2289;
-158.4000;0.4054;1.2312;
-158.1000;0.4021;1.2242;
-157.8000;0.4021;1.2312;
-157.5000;0.4029;1.2359;
-157.2000;0.4054;1.2429;
-156.9000;0.4054;1.2382;
-156.6000;0.4062;1.2336;
-156.3000;0.4037;1.2289;
-156.0000;0.4054;1.2312;
-155.7000;0.4054;1.2265;
-155.4000;0.4054;1.2359;
-155.1000;0.4062;1.2406;
-154.8000;0.4037;1.2406;
-154.5000;0.4103;1.2429;
-154.2000;0.3932;1.1984;
-153.9000;0.4029;1.2219;
-153.6000;0.4054;1.2219;
-153.3000;0.4046;1.2265;
-153.0000;0.4103;1.2406;
-152.7000;0.4037;1.2265;
-152.4000;0.4054;1.2289;
-152.1000;0.4078;1.2359;
-151.8000;0.4037;1.2312;
-151.5000;0.4046;1.2312;
-151.2000;0.4029;1.2289;
-150.9000;0.4046;1.2242;
-150.6000;0.4046;1.2265;
-150.3000;0.4054;1.2195;
-150.0000;0.4029;1.2195;
-149.7000;0.4054;1.2219;
-149.4000;0.4070;1.2195;
-149.1000;0.4029;1.2101;
-148.8000;0.4046;1.2172;
-148.5000;0.4054;1.2242;
-148.2000;0.4103;1.2359;
-147.9000;0.4029;1.2172;
-147.6000;0.4029;1.2125;
-147.3000;0.4037;1.2031;
-147.0000;0.4037;1.1984;
-146.7000;0.4037;1.1961;
-146.4000;0.4037;1.1961;
-146.1000;0.4046;1.1891;
-145.8000;0.4054;1.1914;
-145.5000;0.4037;1.1891;
-145.2000;0.4094;1.2031;
-144.9000;0.4054;1.1984;
-144.6000;0.4037;1.2125;
-144.3000;0.3997;1.2101;
-144.0000;0.4054;1.2265;
-143.7000;0.4037;1.2148;
-143.4000;0.4046;1.2125;
-143.1000;0.4054;1.2195;
-142.8000;0.4029;1.2101;
-142.5000;0.4046;1.2148;
-142.2000;0.4062;1.2242;
-141.9000;0.4054;1.2172;
-141.6000;0.4037;1.2101;
-141.3000;0.4046;1.2172;
-141.0000;0.4037;1.2148;
-140.7000;0.4054;1.2078;
-140.4000;0.4037;1.2031;
-140.1000;0.4037;1.2008;
-139.8000;0.4046;1.1938;
-139.5000;0.4046;1.2031;
-139.2000;0.4046;1.2055;
-138.9000;0.4037;1.2055;
-138.6000;0.4094;1.2219;
-138.3000;0.4037;1.2125;
-138.0000;0.4029;1.2101;
-137.7000;0.4046;1.2125;
-137.4000;0.4062;1.2125;
-137.1000;0.4029;1.2055;
-136.8000;0.4046;1.2008;
-136.5000;0.4094;1.2101;
-136.2000;0.4029;1.1984;
-135.9000;0.4021;1.1938;
-135.6000;0.4021;1.1961;
-135.3000;0.4037;1.1938;
-135.0000;0.4029;1.1844;
-134.7000;0.4029;1.1797;
-134.4000;0.4029;1.1797;
-134.1000;0.4037;1.1797;
-133.8000;0.4037;1.1867;
-133.5000;0.4062;1.1984;
-133.2000;0.4046;1.2008;
-132.9000;0.4037;1.2008;
-132.6000;0.4046;1.1984;
-132.3000;0.4062;1.2008;
-132.0000;0.4037;1.1938;
-131.7000;0.4054;1.1867;
-131.4000;0.4070;1.1821;
-131.1000;0.4037;1.1891;
-130.8000;0.4029;1.1961;
-130.5000;0.4013;1.1938;
-130.2000;0.4046;1.1961;
-129.9000;0.4078;1.2008;
-129.6000;0.4037;1.1938;
-129.3000;0.4054;1.2008;
-129.0000;0.4046;1.2101;
-128.7000;0.4037;1.2055;
-128.4000;0.4029;1.2055;
-128.1000;0.4054;1.2172;
-127.8000;0.4029;1.2148;
-127.5000;0.4070;1.2195;
-127.2000;0.4062;1.2125;
-126.9000;0.4054;1.2078;
-126.6000;0.4037;1.2055;
-126.3000;0.4013;1.2008;
-126.0000;0.4054;1.2125;
-125.7000;0.4046;1.2101;
-125.4000;0.4086;1.2219;
-125.1000;0.4046;1.2101;
-124.8000;0.4037;1.2101;
-124.5000;0.4037;1.2195;
-124.2000;0.4046;1.2219;
-123.9000;0.3997;1.2172;
-123.6000;0.4046;1.2336;
-123.3000;0.4037;1.2382;
-123.0000;0.4046;1.2242;
-122.7000;0.4054;1.2289;
-122.4000;0.4127;1.2476;
-122.1000;0.4070;1.2289;
-121.8000;0.4054;1.2242;
-121.5000;0.4054;1.2219;
-121.2000;0.4037;1.2101;
-120.9000;0.4054;1.2148;
-120.6000;0.4037;1.2148;
-120.3000;0.4029;1.2148;
-120.0000;0.4046;1.2289;
-119.7000;0.4062;1.2359;
-119.4000;0.4046;1.2359;
-119.1000;0.4029;1.2359;
-118.8000;0.4037;1.2312;
-118.5000;0.4070;1.2406;
-118.2000;0.4046;1.2336;
-117.9000;0.4046;1.2289;
-117.6000;0.4062;1.2312;
-117.3000;0.4054;1.2336;
-117.0000;0.4029;1.2382;
-116.7000;0.4029;1.2546;
-116.4000;0.4029;1.2429;
-116.1000;0.4029;1.2429;
-115.8000;0.4086;1.2453;
-115.5000;0.4013;1.2172;
-115.2000;0.4037;1.2265;
-114.9000;0.4054;1.2265;
-114.6000;0.4046;1.2219;
-114.3000;0.4029;1.2195;
-114.0000;0.4037;1.2101;
-113.7000;0.4135;1.2312;
-113.4000;0.4037;1.2125;
-113.1000;0.4029;1.2148;
-112.8000;0.4037;1.2195;
-112.5000;0.4013;1.2078;
-112.2000;0.4005;1.2078;
-111.9000;0.4062;1.2195;
-111.6000;0.4021;1.2125;
-111.3000;0.4046;1.2172;
-111.0000;0.4021;1.2148;
-110.7000;0.4029;1.2172;
-110.4000;0.3932;1.1984;
-110.1000;0.4029;1.2195;
-109.8000;0.4054;1.2359;
-109.5000;0.3997;1.2265;
-109.2000;0.4029;1.2289;
-108.9000;0.4029;1.2242;
-108.6000;0.4054;1.2219;
-108.3000;0.3989;1.2008;
-108.0000;0.4037;1.2172;
-107.7000;0.4037;1.2101;
-107.4000;0.4054;1.2125;
-107.1000;0.3997;1.2172;
-106.8000;0.4037;1.2289;
-106.5000;0.4054;1.2289;
-106.2000;0.4046;1.2195;
-105.9000;0.4046;1.2195;
-105.6000;0.4037;1.2125;
-105.3000;0.4054;1.2195;
-105.0000;0.4037;1.2195;
-104.7000;0.4046;1.2265;
-104.4000;0.4037;1.2148;
-104.1000;0.4021;1.2101;
-103.8000;0.4046;1.2148;
-103.5000;0.4037;1.2125;
-103.2000;0.4054;1.2219;
-102.9000;0.4046;1.2265;
-102.6000;0.4029;1.2312;
-102.3000;0.4054;1.2359;
-102.0000;0.4054;1.2312;
-101.7000;0.4054;1.2359;
-101.4000;0.4013;1.2242;
-101.1000;0.4062;1.2336;
-100.8000;0.4037;1.2336;
-100.5000;0.4037;1.2265;
-100.2000;0.4021;1.2172;
-99.9000;0.4029;1.2242;
-99.6000;0.4037;1.2289;
-99.3000;0.4037;1.2242;
-99.0000;0.4078;1.2359;
-98.7000;0.4037;1.2242;
-98.4000;0.4046;1.2312;
-98.1000;0.4119;1.2476;
-97.8000;0.4013;1.2242;
-97.5000;0.4054;1.2359;
-97.2000;0.4070;1.2359;
-96.9000;0.4054;1.2382;
-96.6000;0.4021;1.2382;
-96.3000;0.4046;1.2476;
-96.0000;0.4054;1.2453;
-95.7000;0.4070;1.2499;
-95.4000;0.4054;1.2429;
-95.1000;0.4021;1.2382;
-94.8000;0.4046;1.2429;
-94.5000;0.4021;1.2406;
-94.2000;0.4029;1.2336;
-93.9000;0.3980;1.2195;
-93.6000;0.4046;1.2336;
-93.3000;0.4054;1.2289;
-93.0000;0.4094;1.2382;
-92.7000;0.4054;1.2265;
-92.4000;0.4054;1.2289;
-92.1000;0.4111;1.2523;
-91.8000;0.4054;1.2382;
-91.5000;0.4037;1.2289;
-91.2000;0.4037;1.2312;
-90.9000;0.4062;1.2336;
-90.6000;0.4029;1.2242;
-90.3000;0.4062;1.2265;
-90.0000;0.4021;1.2336;
-89.7000;0.4046;1.2406;
-89.4000;0.4046;1.2429;
-89.1000;0.4029;1.2359;
-88.8000;0.4029;1.2382;
-88.5000;0.4078;1.2523;
-88.2000;0.4054;1.2429;
-87.9000;0.4029;1.2406;
-87.6000;0.4021;1.2289;
-87.3000;0.4046;1.2406;
-87.0000;0.4046;1.2406;
-86.7000;0.4037;1.2406;
-86.4000;0.4037;1.2453;
-86.1000;0.4046;1.2499;
-85.8000;0.4037;1.2546;
-85.5000;0.4046;1.2499;
-85.2000;0.4029;1.2453;
-84.9000;0.4037;1.2453;
-84.6000;0.4037;1.2336;
-84.3000;0.4078;1.2453;
-84.0000;0.4037;1.2429;
-83.7000;0.4054;1.2476;
-83.4000;0.4119;1.2733;
-83.1000;0.4062;1.2640;
-82.8000;0.4021;1.2523;
-82.5000;0.4046;1.2523;
-82.2000;0.4037;1.2523;
-81.9000;0.4054;1.2570;
-81.6000;0.4046;1.2453;
-81.3000;0.4054;1.2570;
-81.0000;0.4046;1.2570;
-80.7000;0.4046;1.2593;
-80.4000;0.4054;1.2640;
-80.1000;0.4037;1.2546;
-79.8000;0.4021;1.2476;
-79.5000;0.4013;1.2453;
-79.2000;0.4046;1.2593;
-78.9000;0.4029;1.2546;
-78.6000;0.4046;1.2523;
-78.3000;0.4062;1.2546;
-78.0000;0.4021;1.2476;
-77.7000;0.4046;1.2499;
-77.4000;0.4021;1.2429;
-77.1000;0.4046;1.2570;
-76.8000;0.4037;1.2593;
-76.5000;0.4046;1.2476;
-76.2000;0.4094;1.2546;
-75.9000;0.4029;1.2476;
-75.6000;0.4005;1.2406;
-75.3000;0.4021;1.2429;
-75.0000;0.4046;1.2546;
-74.7000;0.4021;1.2570;
-74.4000;0.4046;1.2733;
-74.1000;0.4037;1.2757;
-73.8000;0.4021;1.2757;
-73.5000;0.4054;1.2663;
-73.2000;0.4046;1.2640;
-72.9000;0.4062;1.2570;
-72.6000;0.4029;1.2499;
-72.3000;0.4070;1.2546;
-72.0000;0.4029;1.2453;
-71.7000;0.4029;1.2453;
-71.4000;0.4029;1.2336;
-71.1000;0.4037;1.2359;
-70.8000;0.4029;1.2359;
-70.5000;0.3989;1.2289;
-70.2000;0.4037;1.2453;
-69.9000;0.4029;1.2406;
-69.6000;0.4029;1.2359;
-69.3000;0.4037;1.2406;
-69.0000;0.4054;1.2499;
-68.7000;0.4037;1.2453;
-68.4000;0.4005;1.2382;
-68.1000;0.4029;1.2453;
-67.8000;0.4037;1.2476;
-67.5000;0.4029;1.2429;
-67.2000;0.4037;1.2499;
-66.9000;0.4005;1.2382;
-66.6000;0.4037;1.2359;
-66.3000;0.4037;1.2336;
-66.0000;0.4037;1.2289;
-65.7000;0.4029;1.2242;
-65.4000;0.4037;1.2336;
-65.1000;0.4037;1.2359;
-64.8000;0.3956;1.2148;
-64.5000;0.4046;1.2382;
-64.2000;0.4070;1.2476;
-63.9000;0.4046;1.2406;
-63.6000;0.4054;1.2406;
-63.3000;0.4086;1.2382;
-63.0000;0.3997;1.2148;
-62.7000;0.4046;1.2336;
-62.4000;0.4046;1.2242;
-62.1000;0.4062;1.2265;
-61.8000;0.4046;1.2289;
-61.5000;0.4046;1.2312;
-61.2000;0.4046;1.2336;
-60.9000;0.4037;1.2429;
-60.6000;0.4037;1.2523;
-60.3000;0.4054;1.2593;
-60.0000;0.4054;1.2616;
-59.7000;0.4037;1.2523;
-59.4000;0.4054;1.2499;
-59.1000;0.4054;1.2453;
-58.8000;0.4054;1.2382;
-58.5000;0.4037;1.2359;
-58.2000;0.4046;1.2336;
-57.9000;0.4054;1.2453;
-57.6000;0.4094;1.2406;
-57.3000;0.4046;1.2242;
-57.0000;0.4054;1.2289;
-56.7000;0.4086;1.2476;
-56.4000;0.4054;1.2312;
-56.1000;0.3997;1.2172;
-55.8000;0.4046;1.2289;
-55.5000;0.3980;1.2219;
-55.2000;0.4029;1.2289;
-54.9000;0.4029;1.2265;
-54.6000;0.4005;1.2172;
-54.3000;0.4046;1.2172;
-54.0000;0.4037;1.2195;
-53.7000;0.4037;1.2336;
-53.4000;0.4046;1.2359;
-53.1000;0.4037;1.2289;
-52.8000;0.4029;1.2219;
-52.5000;0.4160;1.2546;
-52.2000;0.4046;1.2148;
-51.9000;0.4094;1.2242;
-51.6000;0.4062;1.2195;
-51.3000;0.4054;1.2219;
-51.0000;0.4046;1.2148;
-50.7000;0.4037;1.2172;
-50.4000;0.4029;1.2195;
-50.1000;0.4037;1.2148;
-49.8000;0.4054;1.2125;
-49.5000;0.4054;1.2148;
-49.2000;0.4005;1.2172;
-48.9000;0.4086;1.2359;
-48.6000;0.4054;1.2265;
-48.3000;0.4054;1.2265;
-48.0000;0.4046;1.2172;
-47.7000;0.4062;1.2172;
-47.4000;0.4054;1.2195;
-47.1000;0.4054;1.2148;
-46.8000;0.4013;1.2101;
-46.5000;0.4054;1.2101;
-46.2000;0.4046;1.2195;
-45.9000;0.4046;1.2289;
-45.6000;0.4029;1.2265;
-45.3000;0.4037;1.2265;
-45.0000;0.4070;1.2312;
-44.7000;0.4046;1.2219;
-44.4000;0.4086;1.2312;
-44.1000;0.4054;1.2265;
-43.8000;0.4037;1.2289;
-43.5000;0.4021;1.2219;
-43.2000;0.4046;1.2312;
-42.9000;0.4046;1.2289;
-42.6000;0.3989;1.2125;
-42.3000;0.4037;1.2289;
-42.0000;0.4021;1.2265;
-41.7000;0.4021;1.2289;
-41.4000;0.4021;1.2359;
-41.1000;0.4037;1.2359;
-40.8000;0.4029;1.2382;
-40.5000;0.4029;1.2406;
-40.2000;0.4029;1.2429;
-39.9000;0.4046;1.2499;
-39.6000;0.4046;1.2406;
-39.3000;0.4037;1.2219;
-39.0000;0.4037;1.2265;
-38.7000;0.4029;1.2195;
-38.4000;0.4103;1.2336;
-38.1000;0.4037;1.2125;
-37.8000;0.4029;1.2195;
-37.5000;0.4054;1.2382;
-37.2000;0.4054;1.2312;
-36.9000;0.4046;1.2242;
-36.6000;0.4021;1.2265;
-36.3000;0.4029;1.2195;
-36.0000;0.4021;1.2172;
-35.7000;0.4070;1.2242;
-35.4000;0.4070;1.2219;
-35.1000;0.4029;1.2148;
-34.8000;0.4054;1.2242;
-34.5000;0.4054;1.2382;
-34.2000;0.4037;1.2312;
-33.9000;0.4029;1.2242;
-33.6000;0.4037;1.2265;
-33.3000;0.4037;1.2242;
-33.0000;0.4054;1.2101;
-32.7000;0.4054;1.2078;
-32.4000;0.4046;1.2101;
-32.1000;0.4037;1.2125;
-31.8000;0.4054;1.2148;
-31.5000;0.4046;1.2148;
-31.2000;0.4054;1.2242;
-30.9000;0.4094;1.2359;
-30.6000;0.4054;1.2312;
-30.3000;0.4062;1.2382;
-30.0000;0.4062;1.2429;
-29.7000;0.4037;1.2336;
-29.4000;0.4111;1.2406;
-29.1000;0.4046;1.2219;
-28.8000;0.4111;1.2219;
-28.5000;0.4037;1.2031;
-28.2000;0.4054;1.1984;
-27.9000;0.4046;1.1891;
-27.6000;0.4037;1.1891;
-27.3000;0.4029;1.1961;
-27.0000;0.4054;1.2101;
-26.7000;0.4054;1.2148;
-26.4000;0.4046;1.2265;
-26.1000;0.4062;1.2265;
-25.8000;0.4054;1.2265;
-25.5000;0.4062;1.2219;
-25.2000;0.4046;1.2172;
-24.9000;0.4029;1.2101;
-24.6000;0.4037;1.2125;
-24.3000;0.4037;1.2101;
-24.0000;0.4054;1.2172;
-23.7000;0.4046;1.2172;
-23.4000;0.4021;1.2219;
-23.1000;0.4070;1.2359;
-22.8000;0.4037;1.2219;
-22.5000;0.4021;1.2172;
-22.2000;0.4029;1.2242;
-21.9000;0.4029;1.2289;
-21.6000;0.3940;1.2125;
-21.3000;0.4070;1.2429;
-21.0000;0.4021;1.2219;
-20.7000;0.4046;1.2289;
-20.4000;0.4046;1.2172;
-20.1000;0.4005;1.2125;
-19.8000;0.4021;1.2148;
-19.5000;0.4037;1.2219;
-19.2000;0.4037;1.2219;
-18.9000;0.4046;1.2219;
-18.6000;0.3997;1.2078;
-18.3000;0.4046;1.2172;
-18.0000;0.3989;1.2055;
-17.7000;0.4037;1.2265;
-17.4000;0.4021;1.2195;
-17.1000;0.4013;1.2219;
-16.8000;0.4046;1.2359;
-16.5000;0.4037;1.2336;
-16.2000;0.4013;1.2242;
-15.9000;0.4070;1.2453;
-15.6000;0.4037;1.2382;
-15.3000;0.4005;1.2289;
-15.0000;0.4054;1.2336;
-14.7000;0.4021;1.2148;
-14.4000;0.4037;1.2172;
-14.1000;0.4135;1.2429;
-13.8000;0.4046;1.2219;
-13.5000;0.4029;1.2195;
-13.2000;0.4029;1.2265;
-12.9000;0.4054;1.2242;
-12.6000;0.4046;1.2172;
-12.3000;0.4021;1.2172;
-12.0000;0.4078;1.2195;
-11.7000;0.4046;1.2172;
-11.4000;0.4062;1.2382;
-11.1000;0.4037;1.2406;
-10.8000;0.4029;1.2336;
-10.5000;0.4062;1.2336;
-10.2000;0.4062;1.2336;
-9.9000;0.4037;1.2195;
-9.6000;0.4046;1.2219;
-9.3000;0.4029;1.2242;
-9.0000;0.4037;1.2289;
-8.7000;0.4029;1.2289;
-8.4000;0.4037;1.2265;
-8.1000;0.4029;1.2219;
-7.8000;0.4070;1.2312;
-7.5000;0.4013;1.2219;
-7.2000;0.4029;1.2195;
-6.9000;0.3964;1.1984;
-6.6000;0.4037;1.2172;
-6.3000;0.4021;1.2101;
-6.0000;0.4078;1.2148;
-5.7000;0.4062;1.2219;
-5.4000;0.4037;1.2195;
-5.1000;0.4046;1.2148;
-4.8000;0.4054;1.2148;
-4.5000;0.4046;1.2101;
-4.2000;0.4054;1.2125;
-3.9000;0.4054;1.2172;
-3.6000;0.4046;1.2148;
-3.3000;0.4046;1.2172;
-3.0000;0.4037;1.2148;
-2.7000;0.4029;1.2195;
-2.4000;0.4037;1.2312;
-2.1000;0.3989;1.2242;
-1.8000;0.4029;1.2359;
-1.5000;0.4062;1.2429;
-1.2000;0.4119;1.2570;
-0.9000;0.4046;1.2382;
-0.6000;0.4046;1.2453;
-0.3000;0.4054;1.2429;
0.0000;0.4054;1.2429;
0.3000;0.4274;1.2593;
0.6000;0.4591;1.3038;
0.9000;0.4835;1.3412;
1.2000;0.5096;1.3951;
1.5000;0.5234;1.4255;
1.8000;0.5364;1.4606;
2.1000;0.5389;1.4653;
2.4000;0.5495;1.4864;
2.7000;0.5657;1.5308;
3.0000;0.5690;1.5519;
3.3000;0.5731;1.5636;
3.6000;0.5788;1.5776;
3.9000;0.5828;1.5893;
4.2000;0.5820;1.5964;
4.5000;0.5885;1.6151;
4.8000;0.5885;1.6198;
5.1000;0.5902;1.6268;
5.4000;0.5902;1.6198;
5.7000;0.5950;1.6408;
6.0000;0.5967;1.6362;
6.3000;0.5999;1.6479;
6.6000;0.5991;1.6455;
6.9000;0.6048;1.6666;
7.2000;0.6032;1.6642;
7.5000;0.6072;1.6666;
7.8000;0.6072;1.6642;
8.1000;0.6081;1.6666;
8.4000;0.6089;1.6783;
8.7000;0.6040;1.6642;
9.0000;0.6138;1.6853;
9.3000;0.6146;1.6830;
9.6000;0.6154;1.6830;
9.9000;0.6170;1.6970;
10.2000;0.6146;1.6923;
10.5000;0.6195;1.6947;
10.8000;0.6186;1.6994;
11.1000;0.6186;1.6900;
11.4000;0.6235;1.6994;
11.7000;0.6203;1.6877;
12.0000;0.6203;1.6947;
12.3000;0.6252;1.7040;
12.6000;0.6292;1.7087;
12.9000;0.6227;1.6853;
13.2000;0.6292;1.6900;
13.5000;0.6317;1.6947;
13.8000;0.6309;1.6900;
14.1000;0.6357;1.6877;
14.4000;0.6325;1.6853;
14.7000;0.6398;1.6970;
15.0000;0.6390;1.7064;
15.3000;0.6284;1.6713;
15.6000;0.6414;1.7040;
15.9000;0.6431;1.7087;
16.2000;0.6431;1.7111;
16.5000;0.6447;1.7111;
16.8000;0.6471;1.7111;
17.1000;0.6455;1.7111;
17.4000;0.6488;1.7111;
17.7000;0.6569;1.7111;
18.0000;0.6520;1.6923;
18.3000;0.6488;1.6900;
18.6000;0.6504;1.6900;
18.9000;0.6504;1.6853;
19.2000;0.6512;1.6900;
19.5000;0.6577;1.6877;
19.8000;0.6520;1.6783;
20.1000;0.6577;1.6900;
20.4000;0.6577;1.6947;
20.7000;0.6577;1.6923;
21.0000;0.6585;1.6947;
21.3000;0.6585;1.7040;
21.6000;0.6610;1.6970;
21.9000;0.6561;1.6783;
22.2000;0.6626;1.6970;
22.5000;0.6634;1.6970;
22.8000;0.6626;1.6877;
23.1000;0.6650;1.6923;
23.4000;0.6618;1.6806;
23.7000;0.6642;1.6900;
24.0000;0.6675;1.6923;
24.3000;0.6716;1.7017;
24.6000;0.6675;1.6853;
24.9000;0.6683;1.6783;
25.2000;0.6618;1.6549;
25.5000;0.6716;1.6689;
25.8000;0.6716;1.6736;
26.1000;0.6683;1.6596;
26.4000;0.6756;1.6736;
26.7000;0.6732;1.6619;
27.0000;0.6740;1.6666;
27.3000;0.6756;1.6642;
27.6000;0.6740;1.6736;
27.9000;0.6756;1.6806;
28.2000;0.6756;1.6759;
28.5000;0.6724;1.6642;
28.8000;0.6740;1.6713;
29.1000;0.6764;1.6736;
29.4000;0.6789;1.6759;
29.7000;0.6732;1.6596;
30.0000;0.6789;1.6736;
30.3000;0.6805;1.6736;
30.6000;0.6821;1.6689;
30.9000;0.6805;1.6736;
31.2000;0.6789;1.6713;
31.5000;0.6805;1.6619;
31.8000;0.6821;1.6642;
32.1000;0.6821;1.6619;
32.4000;0.6829;1.6619;
32.7000;0.6805;1.6596;
33.0000;0.6854;1.6666;
33.3000;0.6846;1.6572;
33.6000;0.6870;1.6596;
33.9000;0.6862;1.6479;
34.2000;0.6886;1.6432;
34.5000;0.6870;1.6408;
34.8000;0.6870;1.6385;
35.1000;0.6895;1.6479;
35.4000;0.6838;1.6362;
35.7000;0.6878;1.6385;
36.0000;0.6886;1.6479;
36.3000;0.6895;1.6525;
36.6000;0.6952;1.6642;
36.9000;0.6903;1.6619;
37.2000;0.6911;1.6572;
37.5000;0.6829;1.6455;
37.8000;0.6919;1.6713;
38.1000;0.6911;1.6619;
38.4000;0.6919;1.6596;
38.7000;0.6919;1.6596;
39.0000;0.6919;1.6596;
39.3000;0.6919;1.6619;
39.6000;0.6935;1.6642;
39.9000;0.6952;1.6596;
40.2000;0.6943;1.6525;
40.5000;0.6960;1.6549;
40.8000;0.6960;1.6596;
41.1000;0.6984;1.6596;
41.4000;0.6960;1.6479;
41.7000;0.6943;1.6338;
42.0000;0.6984;1.6479;
42.3000;0.6960;1.6315;
42.6000;0.6952;1.6291;
42.9000;0.6968;1.6198;
43.2000;0.6976;1.6245;
43.5000;0.6992;1.6338;
43.8000;0.6984;1.6362;
44.1000;0.6984;1.6315;
44.4000;0.7000;1.6268;
44.7000;0.6992;1.6291;
45.0000;0.6992;1.6291;
45.3000;0.7017;1.6338;
45.6000;0.7017;1.6362;
45.9000;0.7009;1.6268;
46.2000;0.6992;1.6338;
46.5000;0.7000;1.6408;
46.8000;0.7017;1.6385;
47.1000;0.7033;1.6408;
47.4000;0.7057;1.6432;
47.7000;0.7049;1.6338;
48.0000;0.7033;1.6245;
48.3000;0.7025;1.6221;
48.6000;0.7033;1.6221;
48.9000;0.7041;1.6245;
49.2000;0.7033;1.6198;
49.5000;0.7082;1.6408;
49.8000;0.7033;1.6315;
50.1000;0.7041;1.6291;
50.4000;0.7049;1.6245;
50.7000;0.7041;1.6151;
51.0000;0.7041;1.6151;
51.3000;0.7066;1.6198;
51.6000;0.7057;1.6221;
51.9000;0.7057;1.6268;
52.2000;0.7074;1.6291;
52.5000;0.7017;1.6221;
52.8000;0.7025;1.6174;
53.1000;0.7066;1.6245;
53.4000;0.7066;1.6174;
53.7000;0.7066;1.6174;
54.0000;0.7066;1.6174;
54.3000;0.7082;1.6221;
54.6000;0.7098;1.6291;
54.9000;0.7131;1.6408;
55.2000;0.7082;1.6245;
55.5000;0.6984;1.5987;
55.8000;0.7090;1.6221;
56.1000;0.7114;1.6291;
56.4000;0.7082;1.6268;
56.7000;0.7123;1.6221;
57.0000;0.7123;1.6198;
57.3000;0.7082;1.6081;
57.6000;0.7131;1.6127;
57.9000;0.7106;1.6127;
58.2000;0.7106;1.6127;
58.5000;0.7188;1.6151;
58.8000;0.7106;1.6034;
59.1000;0.7131;1.5987;
59.4000;0.7098;1.5917;
59.7000;0.7131;1.6034;
60.0000;0.7147;1.6104;
60.3000;0.7106;1.5964;
60.6000;0.7131;1.5940;
60.9000;0.7139;1.6010;
61.2000;0.7147;1.6034;
61.5000;0.7155;1.6057;
61.8000;0.7123;1.5940;
62.1000;0.7155;1.6034;
62.4000;0.7171;1.6151;
62.7000;0.7123;1.6034;
63.0000;0.7147;1.5987;
63.3000;0.7163;1.6010;
63.6000;0.7163;1.5987;
63.9000;0.7179;1.5987;
64.2000;0.7155;1.5940;
64.5000;0.7155;1.5940;
64.8000;0.7163;1.6034;
65.1000;0.7163;1.6104;
65.4000;0.7163;1.5940;
65.7000;0.7163;1.5847;
66.0000;0.7163;1.5823;
66.3000;0.7196;1.5847;
66.6000;0.7179;1.5800;
66.9000;0.7188;1.5847;
67.2000;0.7188;1.5870;
67.5000;0.7204;1.5870;
67.8000;0.7196;1.5753;
68.1000;0.7196;1.5730;
68.4000;0.7220;1.5776;
68.7000;0.7269;1.5940;
69.0000;0.7228;1.5847;
69.3000;0.7261;1.6010;
69.6000;0.7196;1.5800;
69.9000;0.7188;1.5753;
70.2000;0.7228;1.5917;
70.5000;0.7220;1.5893;
70.8000;0.7204;1.5847;
71.1000;0.7204;1.5800;
71.4000;0.7163;1.5613;
71.7000;0.7220;1.5823;
72.0000;0.7220;1.5917;
72.3000;0.7261;1.5964;
72.6000;0.7212;1.5776;
72.9000;0.7220;1.5800;
73.2000;0.7228;1.5776;
73.5000;0.7236;1.5753;
73.8000;0.7245;1.5753;
74.1000;0.7228;1.5636;
74.4000;0.7236;1.5589;
74.7000;0.7204;1.5519;
75.0000;0.7212;1.5566;
75.3000;0.7253;1.5636;
75.6000;0.7302;1.5730;
75.9000;0.7236;1.5613;
76.2000;0.7245;1.5496;
76.5000;0.7253;1.5566;
76.8000;0.7253;1.5566;
77.1000;0.7253;1.5659;
77.4000;0.7253;1.5683;
77.7000;0.7293;1.5847;
78.0000;0.7261;1.5776;
78.3000;0.7285;1.5870;
78.6000;0.7277;1.5870;
78.9000;0.7269;1.5870;
79.2000;0.7285;1.5964;
79.5000;0.7253;1.5893;
79.8000;0.7261;1.5917;
80.1000;0.7269;1.5870;
80.4000;0.7228;1.5613;
80.7000;0.7277;1.5636;
81.0000;0.7269;1.5636;
81.3000;0.7269;1.5613;
81.6000;0.7285;1.5636;
81.9000;0.7285;1.5659;
82.2000;0.7285;1.5636;
82.5000;0.7277;1.5683;
82.8000;0.7310;1.5753;
83.1000;0.7277;1.5589;
83.4000;0.7285;1.5613;
83.7000;0.7293;1.5589;
84.0000;0.7302;1.5636;
84.3000;0.7293;1.5589;
84.6000;0.7293;1.5613;
84.9000;0.7285;1.5519;
85.2000;0.7310;1.5589;
85.5000;0.7302;1.5542;
85.8000;0.7302;1.5472;
86.1000;0.7245;1.5402;
86.4000;0.7318;1.5496;
86.7000;0.7310;1.5496;
87.0000;0.7318;1.5472;
87.3000;0.7302;1.5402;
87.6000;0.7326;1.5496;
87.9000;0.7342;1.5496;
88.2000;0.7318;1.5449;
88.5000;0.7302;1.5425;
88.8000;0.7310;1.5378;
89.1000;0.7334;1.5378;
89.4000;0.7326;1.5425;
89.7000;0.7310;1.5496;
90.0000;0.7318;1.5636;
90.3000;0.7326;1.5589;
90.6000;0.7359;1.5636;
90.9000;0.7318;1.5519;
91.2000;0.7302;1.5378;
91.5000;0.7334;1.5425;
91.8000;0.7359;1.5472;
92.1000;0.7342;1.5402;
92.4000;0.7350;1.5261;
92.7000;0.7342;1.5191;
93.0000;0.7391;1.5355;
93.3000;0.7432;1.5496;
93.6000;0.7375;1.5308;
93.9000;0.7342;1.5285;
94.2000;0.7383;1.5308;
94.5000;0.7342;1.5191;
94.8000;0.7293;1.5144;
95.1000;0.7350;1.5308;
95.4000;0.7350;1.5308;
95.7000;0.7407;1.5519;
96.0000;0.7334;1.5425;
96.3000;0.7350;1.5378;
96.6000;0.7367;1.5402;
96.9000;0.7367;1.5378;
97.2000;0.7383;1.5425;
97.5000;0.7342;1.5308;
97.8000;0.7334;1.5308;
98.1000;0.7424;1.5542;
98.4000;0.7350;1.5378;
98.7000;0.7326;1.5332;
99.0000;0.7407;1.5378;
99.3000;0.7350;1.5285;
99.6000;0.7367;1.5168;
99.9000;0.7375;1.5121;
100.2000;0.7359;1.5121;
100.5000;0.7375;1.5121;
100.8000;0.7367;1.5074;
101.1000;0.7359;1.4957;
101.4000;0.7375;1.4910;
101.7000;0.7367;1.5027;
102.0000;0.7391;1.5191;
102.3000;0.7367;1.5051;
102.6000;0.7383;1.5074;
102.9000;0.7375;1.5098;
103.2000;0.7391;1.5121;
103.5000;0.7383;1.5144;
103.8000;0.7391;1.5098;
104.1000;0.7391;1.5121;
104.4000;0.7391;1.5121;
104.7000;0.7367;1.5074;
105.0000;0.7424;1.5238;
105.3000;0.7375;1.5098;
105.6000;0.7367;1.5074;
105.9000;0.7391;1.5074;
106.2000;0.7326;1.4957;
106.5000;0.7375;1.5051;
106.8000;0.7383;1.5121;
107.1000;0.7391;1.5215;
107.4000;0.7424;1.5238;
107.7000;0.7432;1.5308;
108.0000;0.7375;1.5238;
108.3000;0.7391;1.5261;
108.6000;0.7407;1.5261;
108.9000;0.7383;1.5121;
109.2000;0.7432;1.5191;
109.5000;0.7416;1.5191;
109.8000;0.7399;1.5051;
110.1000;0.7342;1.5027;
110.4000;0.7383;1.5098;
110.7000;0.7367;1.5074;
111.0000;0.7407;1.5121;
111.3000;0.7407;1.5098;
111.6000;0.7432;1.5144;
111.9000;0.7416;1.4957;
112.2000;0.7416;1.5004;
112.5000;0.7407;1.4957;
112.8000;0.7407;1.5027;
113.1000;0.7407;1.5027;
113.4000;0.7424;1.5121;
113.7000;0.7391;1.5168;
114.0000;0.7416;1.5238;
114.3000;0.7407;1.5144;
114.6000;0.7440;1.5215;
114.9000;0.7424;1.5144;
115.2000;0.7416;1.5144;
115.5000;0.7416;1.5215;
115.8000;0.7440;1.5261;
116.1000;0.7424;1.5121;
116.4000;0.7416;1.5074;
116.7000;0.7424;1.5121;
117.0000;0.7432;1.5191;
117.3000;0.7464;1.5238;
117.6000;0.7424;1.5144;
117.9000;0.7424;1.5121;
118.2000;0.7456;1.5144;
118.5000;0.7407;1.5027;
118.8000;0.7456;1.5261;
119.1000;0.7432;1.5098;
119.4000;0.7464;1.5121;
119.7000;0.7416;1.5121;
120.0000;0.7407;1.5051;
120.3000;0.7424;1.5098;
120.6000;0.7375;1.5004;
120.9000;0.7407;1.5074;
121.2000;0.7432;1.5074;
121.5000;0.7424;1.5027;
121.8000;0.7424;1.4957;
122.1000;0.7350;1.4793;
122.4000;0.7448;1.5027;
122.7000;0.7416;1.5004;
123.0000;0.7407;1.5004;
123.3000;0.7440;1.5121;
123.6000;0.7440;1.5074;
123.9000;0.7407;1.4981;
124.2000;0.7432;1.5004;
124.5000;0.7416;1.4887;
124.8000;0.7416;1.4910;
125.1000;0.7448;1.4981;
125.4000;0.7432;1.4934;
125.7000;0.7432;1.4887;
126.0000;0.7399;1.4864;
126.3000;0.7456;1.5004;
126.6000;0.7456;1.4981;
126.9000;0.7432;1.4957;
127.2000;0.7424;1.4934;
127.5000;0.7416;1.4934;
127.8000;0.7448;1.5098;
128.1000;0.7440;1.5098;
128.4000;0.7432;1.5051;
128.7000;0.7440;1.5168;
129.0000;0.7448;1.5074;
129.3000;0.7424;1.4981;
129.6000;0.7497;1.5144;
129.9000;0.7448;1.5051;
130.2000;0.7456;1.5027;
130.5000;0.7440;1.5004;
130.8000;0.7440;1.5004;
131.1000;0.7424;1.5004;
131.4000;0.7464;1.5144;
131.7000;0.7448;1.5121;
132.0000;0.7473;1.5191;
132.3000;0.7440;1.5261;
132.6000;0.7521;1.5472;
132.9000;0.7448;1.5168;
133.2000;0.7456;1.5215;
133.5000;0.7440;1.5285;
133.8000;0.7440;1.5285;
134.1000;0.7473;1.5378;
134.4000;0.7464;1.5285;
134.7000;0.7464;1.5191;
135.0000;0.7456;1.5121;
135.3000;0.7456;1.5144;
135.6000;0.7554;1.5425;
135.9000;0.7432;1.5191;
136.2000;0.7432;1.5215;
136.5000;0.7456;1.5238;
136.8000;0.7424;1.5168;
137.1000;0.7464;1.5144;
137.4000;0.7440;1.5074;
137.7000;0.7448;1.5191;
138.0000;0.7448;1.5168;
138.3000;0.7473;1.5215;
138.6000;0.7464;1.5215;
138.9000;0.7513;1.5308;
139.2000;0.7473;1.5285;
139.5000;0.7464;1.5238;
139.8000;0.7473;1.5285;
140.1000;0.7456;1.5285;
140.4000;0.7473;1.5261;
140.7000;0.7473;1.5238;
141.0000;0.7464;1.5332;
141.3000;0.7481;1.5308;
141.6000;0.7497;1.5308;
141.9000;0.7481;1.5261;
142.2000;0.7456;1.5215;
142.5000;0.7464;1.5238;
142.8000;0.7464;1.5238;
143.1000;0.7473;1.5191;
143.4000;0.7481;1.5191;
143.7000;0.7448;1.5168;
144.0000;0.7481;1.5191;
144.3000;0.7473;1.5144;
144.6000;0.7489;1.5144;
144.9000;0.7456;1.5098;
145.2000;0.7473;1.5215;
145.5000;0.7464;1.5238;
145.8000;0.7473;1.5238;
146.1000;0.7456;1.5261;
146.4000;0.7424;1.5168;
146.7000;0.7489;1.5308;
147.0000;0.7456;1.5308;
147.3000;0.7464;1.5332;
147.6000;0.7464;1.5285;
147.9000;0.7513;1.5425;
148.2000;0.7473;1.5332;
148.5000;0.7473;1.5308;
148.8000;0.7473;1.5308;
149.1000;0.7489;1.5285;
149.4000;0.7481;1.5261;
149.7000;0.7448;1.5168;
150.0000;0.7481;1.5261;
150.3000;0.7481;1.5238;
150.6000;0.7489;1.5285;
150.9000;0.7473;1.5261;
151.2000;0.7473;1.5238;
151.5000;0.7399;1.5098;
151.8000;0.7473;1.5285;
152.1000;0.7464;1.5238;
152.4000;0.7473;1.5191;
152.7000;0.7440;1.5098;
153.0000;0.7497;1.5144;
153.3000;0.7497;1.5098;
153.6000;0.7464;1.4934;
153.9000;0.7448;1.4817;
154.2000;0.7481;1.4934;
154.5000;0.7489;1.4981;
154.8000;0.7473;1.4957;
155.1000;0.7464;1.4817;
155.4000;0.7473;1.4887;
155.7000;0.7473;1.4864;
156.0000;0.7473;1.4840;
156.3000;0.7464;1.4887;
156.6000;0.7554;1.5121;
156.9000;0.7464;1.4957;
157.2000;0.7407;1.4840;
157.5000;0.7432;1.4934;
157.8000;0.7464;1.5027;
158.1000;0.7473;1.4981;
158.4000;0.7456;1.4957;
158.7000;0.7448;1.4910;
159.0000;0.7473;1.4864;
159.3000;0.7473;1.4957;
159.6000;0.7464;1.4910;
159.9000;0.7473;1.4957;
160.2000;0.7497;1.5121;
160.5000;0.7497;1.5051;
160.8000;0.7473;1.5027;
161.1000;0.7473;1.5004;
161.4000;0.7481;1.5004;
161.7000;0.7473;1.5121;
162.0000;0.7464;1.5168;
162.3000;0.7456;1.5215;
162.6000;0.7464;1.5308;
162.9000;0.7473;1.5215;
163.2000;0.7473;1.5285;
163.5000;0.7481;1.5261;
163.8000;0.7473;1.5261;
164.1000;0.7505;1.5308;
164.4000;0.7481;1.5285;
164.7000;0.7489;1.5378;
165.0000;0.7473;1.5378;
165.3000;0.7497;1.5402;
165.6000;0.7497;1.5519;
165.9000;0.7497;1.5449;
166.2000;0.7497;1.5378;
166.5000;0.7538;1.5542;
166.8000;0.7489;1.5402;
167.1000;0.7440;1.5285;
167.4000;0.7464;1.5308;
167.7000;0.7367;1.5098;
168.0000;0.7456;1.5215;
168.3000;0.7481;1.5285;
168.6000;0.7440;1.5238;
168.9000;0.7464;1.5285;
169.2000;0.7473;1.5308;
169.5000;0.7505;1.5355;
169.8000;0.7497;1.5332;
170.1000;0.7473;1.5378;
170.4000;0.7464;1.5308;
170.7000;0.7505;1.5425;
171.0000;0.7464;1.5285;
171.3000;0.7489;1.5285;
171.6000;0.7473;1.5168;
171.9000;0.7440;1.5168;
172.2000;0.7473;1.5215;
172.5000;0.7497;1.5261;
172.8000;0.7448;1.5051;
173.1000;0.7456;1.5027;
173.4000;0.7473;1.5121;
173.7000;0.7489;1.5168;
174.0000;0.7473;1.5215;
174.3000;0.7473;1.5215;
174.6000;0.7473;1.5238;
174.9000;0.7489;1.5238;
175.2000;0.7530;1.5308;
175.5000;0.7521;1.5332;
175.8000;0.7473;1.5285;
176.1000;0.7481;1.5332;
176.4000;0.7473;1.5425;
176.7000;0.7473;1.5402;
177.0000;0.7448;1.5332;
177.3000;0.7448;1.5332;
177.6000;0.7464;1.5261;
177.9000;0.7473;1.5238;
178.2000;0.7473;1.5285;
178.5000;0.7464;1.5402;
178.8000;0.7481;1.5402;
179.1000;0.7497;1.5472;
179.4000;0.7489;1.5402;
179.7000;0.7448;1.5378;
180.0000;0.7489;1.5355;
180.3000;0.7497;1.5285;
180.6000;0.7489;1.5261;
180.9000;0.7489;1.5285;
181.2000;0.7481;1.5238;
181.5000;0.7481;1.5215;
181.8000;0.7464;1.5168;
182.1000;0.7424;1.5051;
182.4000;0.7473;1.5144;
182.7000;0.7481;1.5261;
183.0000;0.7464;1.5215;
183.3000;0.7440;1.5191;
183.6000;0.7456;1.5285;
183.9000;0.7464;1.5285;
184.2000;0.7424;1.5215;
184.5000;0.7448;1.5191;
184.8000;0.7448;1.5215;
185.1000;0.7497;1.5402;
185.4000;0.7546;1.5542;
185.7000;0.7473;1.5449;
186.0000;0.7432;1.5449;
186.3000;0.7570;1.5683;
186.6000;0.7464;1.5332;
186.9000;0.7456;1.5261;
187.2000;0.7489;1.5425;
187.5000;0.7473;1.5449;
187.8000;0.7481;1.5496;
188.1000;0.7464;1.5355;
188.4000;0.7416;1.5144;
188.7000;0.7464;1.5285;
189.0000;0.7489;1.5402;
189.3000;0.7424;1.5168;
189.6000;0.7505;1.5285;
189.9000;0.7473;1.5168;
190.2000;0.7473;1.5168;
190.5000;0.7562;1.5355;
190.8000;0.7481;1.5168;
191.1000;0.7481;1.5215;
191.4000;0.7481;1.5261;
191.7000;0.7448;1.5191;
192.0000;0.7424;1.5074;
192.3000;0.7473;1.5215;
192.6000;0.7481;1.5238;
192.9000;0.7464;1.5191;
193.2000;0.7473;1.5121;
193.5000;0.7473;1.5168;
193.8000;0.7473;1.5215;
194.1000;0.7464;1.5261;
194.4000;0.7489;1.5261;
194.7000;0.7448;1.5191;
195.0000;0.7464;1.5191;
195.3000;0.7489;1.5308;
195.6000;0.7521;1.5332;
195.9000;0.7489;1.5215;
196.2000;0.7481;1.5238;
196.5000;0.7481;1.5191;
196.8000;0.7473;1.5144;
197.1000;0.7456;1.5051;
197.4000;0.7464;1.5074;
197.7000;0.7473;1.5051;
198.0000;0.7497;1.5098;
198.3000;0.7448;1.5098;
198.6000;0.7481;1.5191;
198.9000;0.7481;1.5191;
199.2000;0.7497;1.5191;
199.5000;0.7497;1.5191;
199.8000;0.7473;1.5144;
200.1000;0.7538;1.5308;
200.4000;0.7448;1.5215;
200.7000;0.7481;1.5261;
201.0000;0.7538;1.5355;
201.3000;0.7489;1.5215;
201.6000;0.7473;1.5191;
201.9000;0.7473;1.5121;
202.2000;0.7456;1.5074;
202.5000;0.7538;1.5378;
202.8000;0.7473;1.5074;
203.1000;0.7489;1.4957;
203.4000;0.7464;1.4934;
203.7000;0.7464;1.5027;
204.0000;0.7440;1.4981;
204.3000;0.7464;1.5027;
204.6000;0.7464;1.5027;
204.9000;0.7464;1.4910;
205.2000;0.7342;1.4583;
205.5000;0.7473;1.4840;
205.8000;0.7456;1.4793;
206.1000;0.7473;1.4840;
206.4000;0.7489;1.4887;
206.7000;0.7473;1.4864;
207.0000;0.7448;1.4910;
207.3000;0.7497;1.5051;
207.6000;0.7456;1.5004;
207.9000;0.7448;1.5074;
208.2000;0.7424;1.4957;
208.5000;0.7489;1.5051;
208.8000;0.7456;1.5074;
209.1000;0.7448;1.5121;
209.4000;0.7416;1.4981;
209.7000;0.7464;1.4981;
210.0000;0.7473;1.4957;
210.3000;0.7521;1.5051;
210.6000;0.7489;1.5027;
210.9000;0.7481;1.5051;
211.2000;0.7464;1.4910;
211.5000;0.7424;1.4793;
211.8000;0.7481;1.4910;
212.1000;0.7464;1.4910;
212.4000;0.7652;1.5402;
212.7000;0.7489;1.5051;
213.0000;0.7473;1.5121;
213.3000;0.7481;1.5261;
213.6000;0.7448;1.5191;
213.9000;0.7481;1.5144;
214.2000;0.7464;1.5144;
214.5000;0.7473;1.5144;
214.8000;0.7456;1.5215;
215.1000;0.7456;1.5168;
215.4000;0.7464;1.5121;
215.7000;0.7448;1.5074;
216.0000;0.7473;1.5098;
216.3000;0.7440;1.5121;
216.6000;0.7513;1.5332;
216.9000;0.7448;1.5144;
217.2000;0.7448;1.5144;
217.5000;0.7464;1.5051;
217.8000;0.7448;1.4934;
218.1000;0.7448;1.4957;
218.4000;0.7473;1.5004;
218.7000;0.7440;1.4934;
219.0000;0.7513;1.5191;
219.3000;0.7440;1.5051;
219.6000;0.7546;1.5332;
219.9000;0.7464;1.5144;
220.2000;0.7481;1.5191;
220.5000;0.7497;1.5191;
220.8000;0.7440;1.5074;
221.1000;0.7464;1.5168;
221.4000;0.7448;1.5121;
221.7000;0.7456;1.5215;
222.0000;0.7464;1.5191;
222.3000;0.7473;1.5261;
222.6000;0.7407;1.5121;
222.9000;0.7530;1.5308;
223.2000;0.7432;1.5098;
223.5000;0.7489;1.5168;
223.8000;0.7391;1.4910;
224.1000;0.7473;1.5144;
224.4000;0.7448;1.5121;
224.7000;0.7432;1.5168;
225.0000;0.7432;1.5215;
225.3000;0.7424;1.5261;
225.6000;0.7399;1.5168;
225.9000;0.7464;1.5238;
226.2000;0.7473;1.5168;
226.5000;0.7464;1.5168;
226.8000;0.7530;1.5402;
227.1000;0.7473;1.5215;
227.4000;0.7456;1.5238;
227.7000;0.7432;1.5238;
228.0000;0.7432;1.5238;
228.3000;0.7513;1.5425;
228.6000;0.7464;1.5355;
228.9000;0.7473;1.5285;
229.2000;0.7456;1.5168;
229.5000;0.7464;1.5215;
229.8000;0.7473;1.5238;
230.1000;0.7464;1.5238;
230.4000;0.7481;1.5378;
230.7000;0.7489;1.5449;
231.0000;0.7489;1.5378;
231.3000;0.7473;1.5308;
231.6000;0.7456;1.5308;
231.9000;0.7473;1.5425;
232.2000;0.7448;1.5332;
232.5000;0.7448;1.5308;
232.8000;0.7448;1.5261;
233.1000;0.7440;1.5191;
233.4000;0.7464;1.5332;
233.7000;0.7464;1.5425;
234.0000;0.7464;1.5449;
234.3000;0.7440;1.5425;
234.6000;0.7448;1.5542;
234.9000;0.7464;1.5496;
235.2000;0.7448;1.5449;
235.5000;0.7440;1.5378;
235.8000;0.7464;1.5402;
236.1000;0.7391;1.5215;
236.4000;0.7481;1.5332;
236.7000;0.7440;1.5238;
237.0000;0.7473;1.5238;
237.3000;0.7407;1.5074;
237.6000;0.7456;1.5144;
237.9000;0.7456;1.5191;
238.2000;0.7473;1.5238;
238.5000;0.7464;1.5168;
238.8000;0.7473;1.5191;
239.1000;0.7440;1.5074;
239.4000;0.7456;1.5121;
239.7000;0.7440;1.5027;
240.0000;0.7456;1.4957;
240.3000;0.7440;1.4957;
240.6000;0.7424;1.4981;
240.9000;0.7448;1.5074;
241.2000;0.7464;1.5074;
241.5000;0.7456;1.5027;
241.8000;0.7440;1.5098;
242.1000;0.7464;1.5168;
242.4000;0.7456;1.5285;
242.7000;0.7432;1.5191;
243.0000;0.7481;1.5332;
243.3000;0.7448;1.5378;
243.6000;0.7399;1.5285;
243.9000;0.7456;1.5425;
244.2000;0.7473;1.5542;
244.5000;0.7440;1.5378;
244.8000;0.7456;1.5378;
245.1000;0.7456;1.5261;
245.4000;0.7448;1.5191;
245.7000;0.7432;1.5191;
246.0000;0.7554;1.5425;
246.3000;0.7448;1.5098;
246.6000;0.7456;1.5074;
246.9000;0.7464;1.5238;
247.2000;0.7399;1.5144;
247.5000;0.7464;1.5355;
247.8000;0.7448;1.5402;
248.1000;0.7432;1.5378;
248.4000;0.7481;1.5496;
248.7000;0.7448;1.5402;
249.0000;0.7481;1.5496;
249.3000;0.7440;1.5308;
249.6000;0.7424;1.5332;
249.9000;0.7473;1.5378;
250.2000;0.7464;1.5378;
250.5000;0.7440;1.5425;
250.8000;0.7440;1.5332;
251.1000;0.7448;1.5402;
251.4000;0.7464;1.5519;
251.7000;0.7464;1.5355;
252.0000;0.7456;1.5378;
252.3000;0.7448;1.5449;
252.6000;0.7448;1.5402;
252.9000;0.7448;1.5449;
253.2000;0.7464;1.5425;
253.5000;0.7432;1.5402;
253.8000;0.7464;1.5402;
254.1000;0.7497;1.5519;
254.4000;0.7448;1.5402;
254.7000;0.7448;1.5425;
255.0000;0.7448;1.5378;
255.3000;0.7456;1.5355;
255.6000;0.7440;1.5308;
255.9000;0.7464;1.5378;
256.2000;0.7456;1.5402;
256.5000;0.7456;1.5449;
256.8000;0.7497;1.5519;
257.1000;0.7407;1.5238;
257.4000;0.7473;1.5332;
257.7000;0.7456;1.5402;
258.0000;0.7448;1.5449;
258.3000;0.7440;1.5449;
258.6000;0.7424;1.5355;
258.9000;0.7440;1.5332;
259.2000;0.7448;1.5402;
259.5000;0.7416;1.5285;
259.8000;0.7432;1.5402;
260.1000;0.7383;1.5332;
260.4000;0.7440;1.5519;
260.7000;0.7432;1.5496;
261.0000;0.7432;1.5449;
261.3000;0.7424;1.5378;
261.6000;0.7399;1.5308;
261.9000;0.7456;1.5449;
262.2000;0.7440;1.5402;
262.5000;0.7456;1.5355;
262.8000;0.7464;1.5402;
263.1000;0.7367;1.5121;
263.4000;0.7440;1.5308;
263.7000;0.7440;1.5355;
264.0000;0.7416;1.5215;
264.3000;0.7440;1.5355;
264.6000;0.7513;1.5659;
264.9000;0.7424;1.5542;
265.2000;0.7416;1.5472;
265.5000;0.7416;1.5425;
265.8000;0.7456;1.5542;
266.1000;0.7473;1.5589;
266.4000;0.7424;1.5449;
266.7000;0.7399;1.5308;
267.0000;0.7440;1.5332;
267.3000;0.7448;1.5378;
267.6000;0.7432;1.5308;
267.9000;0.7440;1.5308;
268.2000;0.7448;1.5355;
268.5000;0.7432;1.5332;
268.8000;0.7432;1.5332;
269.1000;0.7432;1.5285;
269.4000;0.7456;1.5378;
269.7000;0.7432;1.5332;
270.0000;0.7424;1.5308;
270.3000;0.7456;1.5378;
270.6000;0.7481;1.5308;
270.9000;0.7432;1.5098;
271.2000;0.7440;1.5121;
271.5000;0.7489;1.5285;
271.8000;0.7416;1.5215;
272.1000;0.7448;1.5519;
272.4000;0.7440;1.5566;
272.7000;0.7448;1.5613;
273.0000;0.7448;1.5636;
273.3000;0.7448;1.5683;
273.6000;0.7432;1.5636;
273.9000;0.7432;1.5589;
274.2000;0.7416;1.5519;
274.5000;0.7432;1.5589;
274.8000;0.7440;1.5449;
275.1000;0.7416;1.5285;
275.4000;0.7383;1.5285;
275.7000;0.7456;1.5402;
276.0000;0.7416;1.5308;
276.3000;0.7432;1.5332;
276.6000;0.7424;1.5308;
276.9000;0.7448;1.5378;
277.2000;0.7448;1.5402;
277.5000;0.7448;1.5402;
277.8000;0.7424;1.5355;
278.1000;0.7448;1.5378;
278.4000;0.7432;1.5378;
278.7000;0.7424;1.5449;
279.0000;0.7424;1.5402;
279.3000;0.7416;1.5378;
279.6000;0.7448;1.5425;
279.9000;0.7416;1.5332;
280.2000;0.7424;1.5402;
280.5000;0.7456;1.5472;
280.8000;0.7440;1.5449;
281.1000;0.7432;1.5472;
281.4000;0.7424;1.5589;
281.7000;0.7456;1.5659;
282.0000;0.7448;1.5659;
282.3000;0.7416;1.5613;
282.6000;0.7416;1.5706;
282.9000;0.7432;1.5636;
283.2000;0.7432;1.5472;
283.5000;0.7456;1.5496;
283.8000;0.7432;1.5496;
284.1000;0.7424;1.5402;
284.4000;0.7424;1.5378;
284.7000;0.7399;1.5285;
285.0000;0.7416;1.5332;
285.3000;0.7424;1.5355;
285.6000;0.7334;1.5121;
285.9000;0.7432;1.5355;
286.2000;0.7432;1.5355;
286.5000;0.7407;1.5332;
286.8000;0.7424;1.5355;
287.1000;0.7399;1.5402;
287.4000;0.7432;1.5496;
287.7000;0.7432;1.5542;
288.0000;0.7424;1.5542;
288.3000;0.7440;1.5519;
288.6000;0.7546;1.5800;
288.9000;0.7399;1.5449;
289.2000;0.7424;1.5472;
289.5000;0.7407;1.5425;
289.8000;0.7464;1.5519;
290.1000;0.7432;1.5402;
290.4000;0.7416;1.5332;
290.7000;0.7424;1.5378;
291.0000;0.7432;1.5449;
291.3000;0.7432;1.5519;
291.6000;0.7432;1.5496;
291.9000;0.7416;1.5496;
292.2000;0.7416;1.5566;
292.5000;0.7440;1.5659;
292.8000;0.7416;1.5636;
293.1000;0.7416;1.5659;
293.4000;0.7440;1.5706;
293.7000;0.7440;1.5753;
294.0000;0.7448;1.5683;
294.3000;0.7464;1.5589;
294.6000;0.7440;1.5519;
294.9000;0.7432;1.5542;
295.2000;0.7432;1.5613;
295.5000;0.7464;1.5613;
295.8000;0.7481;1.5613;
296.1000;0.7424;1.5355;
296.4000;0.7481;1.5472;
296.7000;0.7334;1.5098;
297.0000;0.7407;1.5308;
297.3000;0.7416;1.5355;
297.6000;0.7448;1.5402;
297.9000;0.7424;1.5332;
298.2000;0.7391;1.5215;
298.5000;0.7424;1.5378;
298.8000;0.7391;1.5308;
299.1000;0.7432;1.5378;
299.4000;0.7416;1.5378;
299.7000;0.7416;1.5308;
300.0000;0.7416;1.5402;
300.3000;0.7399;1.5449;
300.6000;0.7391;1.5261;
300.9000;0.7407;1.5238;
301.2000;0.7456;1.5261;
301.5000;0.7391;1.5238;
301.8000;0.7416;1.5261;
302.1000;0.7399;1.5238;
302.4000;0.7497;1.5566;
302.7000;0.7440;1.5355;
303.0000;0.7416;1.5238;
303.3000;0.7407;1.5238;
303.6000;0.7481;1.5472;
303.9000;0.7432;1.5378;
304.2000;0.7359;1.5191;
304.5000;0.7416;1.5378;
304.8000;0.7440;1.5472;
305.1000;0.7432;1.5496;
305.4000;0.7432;1.5472;
305.7000;0.7416;1.5496;
306.0000;0.7424;1.5519;
306.3000;0.7424;1.5496;
306.6000;0.7456;1.5542;
306.9000;0.7399;1.5496;
307.2000;0.7448;1.5613;
307.5000;0.7375;1.5425;
307.8000;0.7424;1.5589;
308.1000;0.7456;1.5683;
308.4000;0.7416;1.5589;
308.7000;0.7407;1.5613;
309.0000;0.7432;1.5706;
309.3000;0.7424;1.5683;
309.6000;0.7416;1.5683;
309.9000;0.7432;1.5636;
310.2000;0.7416;1.5589;
310.5000;0.7342;1.5332;
310.8000;0.7391;1.5425;
311.1000;0.7383;1.5425;
311.4000;0.7399;1.5425;
311.7000;0.7399;1.5402;
312.0000;0.7448;1.5519;
312.3000;0.7391;1.5378;
312.6000;0.7407;1.5425;
312.9000;0.7407;1.5378;
313.2000;0.7407;1.5402;
313.5000;0.7407;1.5519;
313.8000;0.7407;1.5472;
314.1000;0.7407;1.5472;
314.4000;0.7383;1.5449;
314.7000;0.7432;1.5519;
315.0000;0.7399;1.5496;
315.3000;0.7391;1.5496;
315.6000;0.7440;1.5542;
315.9000;0.7399;1.5402;
316.2000;0.7407;1.5472;
316.5000;0.7383;1.5496;
316.8000;0.7399;1.5519;
317.1000;0.7383;1.5519;
317.4000;0.7399;1.5472;
317.7000;0.7359;1.5261;
318.0000;0.7432;1.5402;
318.3000;0.7407;1.5378;
318.6000;0.7456;1.5425;
318.9000;0.7424;1.5378;
319.2000;0.7448;1.5425;
319.5000;0.7399;1.5378;
319.8000;0.7432;1.5542;
320.1000;0.7399;1.5472;
320.4000;0.7407;1.5519;
320.7000;0.7391;1.5566;
321.0000;0.7448;1.5706;
321.3000;0.7416;1.5566;
321.6000;0.7399;1.5519;
321.9000;0.7481;1.5753;
322.2000;0.7383;1.5402;
322.5000;0.7399;1.5472;
322.8000;0.7399;1.5542;
323.1000;0.7407;1.5589;
323.4000;0.7375;1.5402;
323.7000;0.7391;1.5402;
324.0000;0.7391;1.5449;
324.3000;0.7416;1.5472;
324.6000;0.7391;1.5425;
324.9000;0.7399;1.5472;
325.2000;0.7464;1.5636;
325.5000;0.7416;1.5566;
325.8000;0.7399;1.5542;
326.1000;0.7367;1.5472;
326.4000;0.7359;1.5449;
326.7000;0.7407;1.5425;
327.0000;0.7399;1.5402;
327.3000;0.7424;1.5472;
327.6000;0.7407;1.5496;
327.9000;0.7391;1.5589;
328.2000;0.7416;1.5636;
328.5000;0.7383;1.5613;
328.8000;0.7383;1.5496;
329.1000;0.7424;1.5613;
329.4000;0.7399;1.5566;
329.7000;0.7383;1.5496;
330.0000;0.7383;1.5402;
330.3000;0.7383;1.5402;
330.6000;0.7407;1.5425;
330.9000;0.7375;1.5378;
331.2000;0.7424;1.5449;
331.5000;0.7383;1.5355;
331.8000;0.7399;1.5425;
332.1000;0.7399;1.5355;
332.4000;0.7391;1.5285;
332.7000;0.7383;1.5378;
333.0000;0.7383;1.5425;
333.3000;0.7416;1.5496;
333.6000;0.7383;1.5496;
333.9000;0.7399;1.5519;
334.2000;0.7407;1.5449;
334.5000;0.7391;1.5425;
334.8000;0.7407;1.5449;
335.1000;0.7359;1.5355;
335.4000;0.7399;1.5472;
335.7000;0.7424;1.5589;
336.0000;0.7399;1.5542;
336.3000;0.7391;1.5519;
336.6000;0.7399;1.5496;
336.9000;0.7391;1.5496;
337.2000;0.7399;1.5636;
337.5000;0.7391;1.5496;
337.8000;0.7481;1.5636;
338.1000;0.7383;1.5308;
338.4000;0.7391;1.5261;
338.7000;0.7416;1.5378;
339.0000;0.7416;1.5378;
339.3000;0.7407;1.5402;
339.6000;0.7375;1.5402;
339.9000;0.7391;1.5425;
340.2000;0.7399;1.5449;
340.5000;0.7399;1.5496;
340.8000;0.7440;1.5566;
341.1000;0.7407;1.5542;
341.4000;0.7383;1.5519;
341.7000;0.7440;1.5566;
342.0000;0.7391;1.5449;
342.3000;0.7375;1.5566;
342.6000;0.7407;1.5566;
342.9000;0.7367;1.5355;
343.2000;0.7399;1.5308;
343.5000;0.7285;1.5027;
343.8000;0.7464;1.5355;
344.1000;0.7383;1.5285;
344.4000;0.7383;1.5332;
344.7000;0.7399;1.5332;
345.0000;0.7391;1.5332;
345.3000;0.7391;1.5308;
345.6000;0.7375;1.5215;
345.9000;0.7334;1.5191;
346.2000;0.7375;1.5308;
346.5000;0.7375;1.5355;
346.8000;0.7391;1.5425;
347.1000;0.7318;1.5191;
347.4000;0.7383;1.5308;
347.7000;0.7391;1.5308;
348.0000;0.7383;1.5308;
348.3000;0.7416;1.5425;
348.6000;0.7391;1.5378;
348.9000;0.7367;1.5261;
349.2000;0.7383;1.5355;
349.5000;0.7399;1.5425;
349.8000;0.7407;1.5355;
350.1000;0.7399;1.5308;
350.4000;0.7391;1.5238;
350.7000;0.7391;1.5261;
351.0000;0.7383;1.5285;
351.3000;0.7440;1.5472;
351.6000;0.7416;1.5449;
351.9000;0.7391;1.5402;
352.2000;0.7424;1.5566;
352.5000;0.7456;1.5636;
352.8000;0.7416;1.5496;
353.1000;0.7367;1.5332;
353.4000;0.7391;1.5332;
353.7000;0.7440;1.5402;
354.0000;0.7383;1.5355;
354.3000;0.7383;1.5261;
354.6000;0.7407;1.5285;
354.9000;0.7391;1.5355;
355.2000;0.7375;1.5332;
355.5000;0.7407;1.5449;
355.8000;0.7399;1.5425;
356.1000;0.7375;1.5542;
356.4000;0.7391;1.5589;
356.7000;0.7391;1.5589;
357.0000;0.7383;1.5613;
357.3000;0.7383;1.5566;
357.6000;0.7432;1.5753;
357.9000;0.7375;1.5636;
358.2000;0.7383;1.5730;
358.5000;0.7383;1.5800;
358.8000;0.7367;1.5706;
359.1000;0.7367;1.5636;
359.4000;0.7359;1.5706;
359.7000;0.7383;1.5683;
360.0000;0.7391;1.5776;
360.3000;0.7399;1.5800;
360.6000;0.7391;1.5776;
360.9000;0.7350;1.5542;
361.2000;0.7391;1.5613;
361.5000;0.7391;1.5659;
361.8000;0.7383;1.5659;
362.1000;0.7391;1.5636;
362.4000;0.7391;1.5706;
362.7000;0.7375;1.5613;
363.0000;0.7375;1.5636;
363.3000;0.7391;1.5636;
363.6000;0.7399;1.5636;
363.9000;0.7367;1.5613;
364.2000;0.7399;1.5753;
364.5000;0.7432;1.5800;
364.8000;0.7359;1.5542;
365.1000;0.7391;1.5730;
365.4000;0.7375;1.5753;
365.7000;0.7391;1.5776;
366.0000;0.7383;1.5683;
366.3000;0.7383;1.5730;
366.6000;0.7391;1.5776;
366.9000;0.7375;1.5847;
367.2000;0.7367;1.5823;
367.5000;0.7367;1.5659;
367.8000;0.7383;1.5706;
368.1000;0.7359;1.5683;
368.4000;0.7383;1.5823;
368.7000;0.7367;1.5659;
369.0000;0.7326;1.5613;
369.3000;0.7367;1.5659;
369.6000;0.7367;1.5683;
369.9000;0.7367;1.5776;
370.2000;0.7391;1.5753;
370.5000;0.7383;1.5800;
370.8000;0.7359;1.5730;
371.1000;0.7375;1.5730;
371.4000;0.7424;1.5800;
371.7000;0.7407;1.5823;
372.0000;0.7375;1.5706;
372.3000;0.7359;1.5706;
372.6000;0.7375;1.5776;
372.9000;0.7342;1.5753;
373.2000;0.7359;1.5753;
373.5000;0.7350;1.5683;
373.8000;0.7416;1.5800;
374.1000;0.7383;1.5730;
374.4000;0.7383;1.5683;
374.7000;0.7399;1.5776;
375.0000;0.7367;1.5753;
375.3000;0.7391;1.5800;
375.6000;0.7440;1.5870;
375.9000;0.7367;1.5753;
376.2000;0.7375;1.5753;
376.5000;0.7407;1.5800;
376.8000;0.7383;1.5776;
377.1000;0.7367;1.5706;
377.4000;0.7367;1.5706;
377.7000;0.7407;1.5776;
378.0000;0.7367;1.5776;
378.3000;0.7367;1.5870;
378.6000;0.7318;1.5706;
378.9000;0.7375;1.5870;
379.2000;0.7367;1.5823;
379.5000;0.7367;1.5823;
379.8000;0.7391;1.5800;
380.1000;0.7383;1.5706;
380.4000;0.7383;1.5659;
380.7000;0.7375;1.5706;
381.0000;0.7375;1.5683;
381.3000;0.7350;1.5683;
381.6000;0.7359;1.5800;
381.9000;0.7375;1.5800;
382.2000;0.7350;1.5706;
382.5000;0.7375;1.5753;
382.8000;0.7375;1.5730;
383.1000;0.7367;1.5753;
383.4000;0.7359;1.5800;
383.7000;0.7350;1.5706;
384.0000;0.7359;1.5589;
384.3000;0.7375;1.5613;
384.6000;0.7367;1.5542;
384.9000;0.7407;1.5636;
385.2000;0.7367;1.5566;
385.5000;0.7359;1.5589;
385.8000;0.7375;1.5636;
386.1000;0.7342;1.5659;
386.4000;0.7383;1.5706;
386.7000;0.7375;1.5706;
387.0000;0.7375;1.5730;
387.3000;0.7399;1.5753;
387.6000;0.7350;1.5659;
387.9000;0.7350;1.5683;
388.2000;0.7367;1.5636;
388.5000;0.7359;1.5589;
388.8000;0.7350;1.5636;
389.1000;0.7383;1.5730;
389.4000;0.7375;1.5706;
389.7000;0.7383;1.5823;
390.0000;0.7350;1.5776;
390.3000;0.7367;1.5753;
390.6000;0.7367;1.5847;
390.9000;0.7350;1.5847;
391.2000;0.7350;1.5753;
391.5000;0.7342;1.5683;
391.8000;0.7383;1.5776;
392.1000;0.7367;1.5776;
392.4000;0.7326;1.5706;
392.7000;0.7375;1.5753;
393.0000;0.7359;1.5683;
393.3000;0.7334;1.5589;
393.6000;0.7375;1.5683;
393.9000;0.7334;1.5613;
394.2000;0.7399;1.5753;
394.5000;0.7367;1.5706;
394.8000;0.7375;1.5706;
395.1000;0.7350;1.5589;
395.4000;0.7359;1.5683;
395.7000;0.7359;1.5730;
396.0000;0.7375;1.5706;
396.3000;0.7375;1.5730;
396.6000;0.7359;1.5659;
396.9000;0.7326;1.5659;
397.2000;0.7350;1.5683;
397.5000;0.7350;1.5683;
397.8000;0.7424;1.5823;
398.1000;0.7367;1.5659;
398.4000;0.7334;1.5472;
398.7000;0.7359;1.5519;
399.0000;0.7367;1.5636;
399.3000;0.7326;1.5589;
399.6000;0.7350;1.5636;
399.9000;0.7350;1.5519;
400.2000;0.7391;1.5659;
400.5000;0.7342;1.5566;
400.8000;0.7367;1.5613;
401.1000;0.7375;1.5776;
401.4000;0.7367;1.5847;
401.7000;0.7383;1.5917;
402.0000;0.7350;1.5917;
402.3000;0.7367;1.5870;
402.6000;0.7359;1.5917;
402.9000;0.7342;1.5964;
403.2000;0.7399;1.6034;
403.5000;0.7367;1.5987;
403.8000;0.7350;1.5940;
404.1000;0.7342;1.5893;
404.4000;0.7342;1.5893;
404.7000;0.7334;1.5870;
405.0000;0.7326;1.5800;
405.3000;0.7350;1.5823;
405.6000;0.7367;1.5847;
405.9000;0.7367;1.5776;
406.2000;0.7383;1.5753;
406.5000;0.7399;1.5847;
406.8000;0.7367;1.5823;
407.1000;0.7359;1.5706;
407.4000;0.7367;1.5636;
407.7000;0.7367;1.5589;
408.0000;0.7375;1.5566;
408.3000;0.7359;1.5496;
408.6000;0.7342;1.5449;
408.9000;0.7350;1.5308;
409.2000;0.7334;1.5332;
409.5000;0.7359;1.5425;
409.8000;0.7359;1.5519;
410.1000;0.7375;1.5542;
410.4000;0.7367;1.5566;
410.7000;0.7334;1.5472;
411.0000;0.7367;1.5542;
411.3000;0.7342;1.5519;
411.6000;0.7416;1.5730;
411.9000;0.7359;1.5589;
412.2000;0.7350;1.5659;
412.5000;0.7375;1.5753;
412.8000;0.7334;1.5706;
413.1000;0.7350;1.5706;
413.4000;0.7359;1.5706;
413.7000;0.7334;1.5706;
414.0000;0.7359;1.5823;
414.3000;0.7407;1.5940;
414.6000;0.7342;1.5776;
414.9000;0.7350;1.5776;
415.2000;0.7342;1.5776;
415.5000;0.7310;1.5589;
415.8000;0.7359;1.5706;
416.1000;0.7367;1.5706;
416.4000;0.7383;1.5706;
416.7000;0.7383;1.5659;
417.0000;0.7334;1.5519;
417.3000;0.7342;1.5542;
417.6000;0.7350;1.5542;
417.9000;0.7440;1.5870;
418.2000;0.7350;1.5659;
418.5000;0.7350;1.5542;
418.8000;0.7359;1.5496;
419.1000;0.7383;1.5636;
419.4000;0.7367;1.5730;
419.7000;0.7359;1.5706;
420.0000;0.7359;1.5683;
420.3000;0.7350;1.5683;
420.6000;0.7342;1.5659;
420.9000;0.7448;1.5870;
421.2000;0.7359;1.5659;
421.5000;0.7367;1.5659;
421.8000;0.7359;1.5683;
422.1000;0.7399;1.5823;
422.4000;0.7350;1.5753;
422.7000;0.7350;1.5823;
423.0000;0.7326;1.5776;
423.3000;0.7318;1.5800;
423.6000;0.7334;1.5800;
423.9000;0.7326;1.5800;
424.2000;0.7342;1.5847;
424.5000;0.7310;1.5613;
424.8000;0.7342;1.5636;
425.1000;0.7391;1.5753;
425.4000;0.7342;1.5706;
425.7000;0.7383;1.5917;
426.0000;0.7350;1.5870;
426.3000;0.7350;1.5870;
426.6000;0.7432;1.6057;
426.9000;0.7334;1.5730;
427.2000;0.7334;1.5589;
427.5000;0.7350;1.5542;
427.8000;0.7342;1.5566;
428.1000;0.7342;1.5566;
428.4000;0.7359;1.5706;
428.7000;0.7350;1.5823;
429.0000;0.7359;1.5847;
429.3000;0.7342;1.5917;
429.6000;0.7350;1.6010;
429.9000;0.7326;1.6081;
430.2000;0.7350;1.6057;
430.5000;0.7334;1.6034;
430.8000;0.7310;1.5964;
431.1000;0.7350;1.5847;
431.4000;0.7367;1.6010;
431.7000;0.7350;1.6081;
432.0000;0.7399;1.6174;
432.3000;0.7318;1.5964;
432.6000;0.7334;1.5987;
432.9000;0.7375;1.6127;
433.2000;0.7359;1.6127;
433.5000;0.7342;1.6034;
433.8000;0.7391;1.6174;
434.1000;0.7367;1.6057;
434.4000;0.7375;1.6057;
434.7000;0.7350;1.5987;
435.0000;0.7350;1.5964;
435.3000;0.7350;1.5893;
435.6000;0.7391;1.6010;
435.9000;0.7416;1.6127;
436.2000;0.7359;1.6010;
436.5000;0.7424;1.6034;
436.8000;0.7342;1.5870;
437.1000;0.7318;1.5847;
437.4000;0.7318;1.5893;
437.7000;0.7342;1.5964;
438.0000;0.7359;1.6081;
438.3000;0.7367;1.6081;
438.6000;0.7334;1.6010;
438.9000;0.7342;1.6127;
439.2000;0.7350;1.6057;
439.5000;0.7350;1.6081;
439.8000;0.7326;1.6057;
440.1000;0.7326;1.6034;
440.4000;0.7342;1.6127;
440.7000;0.7310;1.6081;
441.0000;0.7342;1.6127;
441.3000;0.7318;1.6151;
441.6000;0.7342;1.6198;
441.9000;0.7375;1.6268;
442.2000;0.7293;1.6127;
442.5000;0.7350;1.6104;
442.8000;0.7350;1.6104;
443.1000;0.7326;1.6057;
443.4000;0.7350;1.6151;
443.7000;0.7326;1.6127;
444.0000;0.7334;1.6034;
444.3000;0.7342;1.5987;
444.6000;0.7440;1.6245;
444.9000;0.7342;1.6057;
445.2000;0.7334;1.6010;
445.5000;0.7334;1.5940;
445.8000;0.7334;1.5917;
446.1000;0.7318;1.5940;
446.4000;0.7302;1.5964;
446.7000;0.7342;1.5893;
447.0000;0.7326;1.5823;
447.3000;0.7416;1.6010;
447.6000;0.7318;1.5847;
447.9000;0.7293;1.5823;
448.2000;0.7350;1.5964;
448.5000;0.7334;1.5870;
448.8000;0.7342;1.5917;
449.1000;0.7334;1.5917;
449.4000;0.7334;1.5893;
449.7000;0.7326;1.5870;
450.0000;0.7302;1.5753;
450.3000;0.7310;1.5730;
450.6000;0.7350;1.5823;
450.9000;0.7334;1.5753;
451.2000;0.7342;1.5753;
451.5000;0.7334;1.5706;
451.8000;0.7342;1.5613;
452.1000;0.7326;1.5542;
452.4000;0.7334;1.5636;
452.7000;0.7383;1.5776;
453.0000;0.7326;1.5659;
453.3000;0.7302;1.5613;
453.6000;0.7342;1.5776;
453.9000;0.7334;1.5823;
454.2000;0.7367;1.5847;
454.5000;0.7342;1.5753;
454.8000;0.7367;1.5776;
455.1000;0.7326;1.5730;
455.4000;0.7310;1.5753;
455.7000;0.7334;1.5917;
456.0000;0.7359;1.5964;
456.3000;0.7342;1.5893;
456.6000;0.7367;1.5870;
456.9000;0.7342;1.5776;
457.2000;0.7399;1.5823;
457.5000;0.7326;1.5636;
457.8000;0.7326;1.5730;
458.1000;0.7334;1.5800;
458.4000;0.7318;1.5753;
458.7000;0.7342;1.5847;
459.0000;0.7334;1.5847;
459.3000;0.7399;1.5987;
459.6000;0.7334;1.5893;
459.9000;0.7334;1.5987;
460.2000;0.7367;1.5964;
460.5000;0.7277;1.5823;
460.8000;0.7334;1.5893;
461.1000;0.7367;1.5940;
461.4000;0.7310;1.5776;
461.7000;0.7326;1.5730;
462.0000;0.7293;1.5542;
462.3000;0.7342;1.5730;
462.6000;0.7302;1.5706;
462.9000;0.7440;1.6104;
463.2000;0.7318;1.5823;
463.5000;0.7334;1.5940;
463.8000;0.7326;1.5893;
464.1000;0.7334;1.5870;
464.4000;0.7326;1.5870;
464.7000;0.7293;1.5753;
465.0000;0.7383;1.5964;
465.3000;0.7326;1.5847;
465.6000;0.7318;1.5847;
465.9000;0.7318;1.5776;
466.2000;0.7326;1.5870;
466.5000;0.7302;1.5800;
466.8000;0.7326;1.5917;
467.1000;0.7350;1.5940;
467.4000;0.7407;1.6057;
467.7000;0.7334;1.5987;
468.0000;0.7310;1.5940;
468.3000;0.7326;1.5987;
468.6000;0.7293;1.5870;
468.9000;0.7350;1.6081;
469.2000;0.7342;1.6057;
469.5000;0.7342;1.6057;
469.8000;0.7326;1.5987;
470.1000;0.7326;1.5893;
470.4000;0.7350;1.5893;
470.7000;0.7334;1.5847;
471.0000;0.7350;1.5964;
471.3000;0.7342;1.5847;
471.6000;0.7326;1.5776;
471.9000;0.7318;1.5706;
472.2000;0.7318;1.5730;
472.5000;0.7261;1.5589;
472.8000;0.7334;1.5847;
473.1000;0.7277;1.5753;
473.4000;0.7334;1.5893;
473.7000;0.7359;1.5987;
474.0000;0.7326;1.5940;
474.3000;0.7326;1.5940;
474.6000;0.7334;1.5987;
474.9000;0.7350;1.6010;
475.2000;0.7318;1.5893;
475.5000;0.7326;1.5823;
475.8000;0.7326;1.5893;
476.1000;0.7318;1.5823;
476.4000;0.7342;1.5753;
476.7000;0.7326;1.5776;
477.0000;0.7342;1.5776;
477.3000;0.7326;1.5659;
477.6000;0.7326;1.5613;
477.9000;0.7350;1.5800;
478.2000;0.7334;1.5847;
478.5000;0.7326;1.5823;
478.8000;0.7342;1.5823;
479.1000;0.7342;1.5823;
479.4000;0.7342;1.5823;
479.7000;0.7367;1.5776;
480.0000;0.7399;1.5776;
480.3000;0.7350;1.5636;
480.6000;0.7326;1.5496;
480.9000;0.7342;1.5589;
481.2000;0.7326;1.5566;
481.5000;0.7334;1.5542;
481.8000;0.7334;1.5613;
482.1000;0.7326;1.5636;
482.4000;0.7350;1.5613;
482.7000;0.7342;1.5613;
483.0000;0.7318;1.5589;
483.3000;0.7342;1.5566;
483.6000;0.7350;1.5730;
483.9000;0.7326;1.5542;
484.2000;0.7350;1.5659;
484.5000;0.7310;1.5542;
484.8000;0.7318;1.5496;
485.1000;0.7334;1.5566;
485.4000;0.7326;1.5589;
485.7000;0.7310;1.5613;
486.0000;0.7350;1.5613;
486.3000;0.7342;1.5589;
486.6000;0.7326;1.5519;
486.9000;0.7318;1.5542;
487.2000;0.7326;1.5566;
487.5000;0.7334;1.5566;
487.8000;0.7318;1.5613;
488.1000;0.7310;1.5542;
488.4000;0.7318;1.5496;
488.7000;0.7302;1.5519;
489.0000;0.7334;1.5542;
489.3000;0.7326;1.5449;
489.6000;0.7318;1.5425;
489.9000;0.7375;1.5636;
490.2000;0.7350;1.5542;
490.5000;0.7326;1.5449;
490.8000;0.7318;1.5496;
491.1000;0.7310;1.5542;
491.4000;0.7310;1.5636;
491.7000;0.7334;1.5706;
492.0000;0.7310;1.5730;
492.3000;0.7318;1.5730;
492.6000;0.7293;1.5589;
492.9000;0.7236;1.5402;
493.2000;0.7350;1.5706;
493.5000;0.7245;1.5496;
493.8000;0.7334;1.5730;
494.1000;0.7302;1.5706;
494.4000;0.7318;1.5776;
494.7000;0.7310;1.5847;
495.0000;0.7359;1.5940;
495.3000;0.7302;1.5823;
495.6000;0.7318;1.5870;
495.9000;0.7302;1.5800;
496.2000;0.7293;1.5847;
496.5000;0.7302;1.5870;
496.8000;0.7318;1.5917;
497.1000;0.7293;1.5964;
497.4000;0.7302;1.6057;
497.7000;0.7375;1.6245;
498.0000;0.7391;1.6174;
498.3000;0.7326;1.5987;
498.6000;0.7310;1.5987;
498.9000;0.7310;1.5893;
499.2000;0.7326;1.5870;
499.5000;0.7318;1.5823;
499.8000;0.7310;1.5730;
500.1000;0.7318;1.5753;
500.4000;0.7326;1.5706;
500.7000;0.7318;1.5589;
501.0000;0.7326;1.5613;
501.3000;0.7310;1.5636;
501.6000;0.7318;1.5589;
501.9000;0.7334;1.5636;
502.2000;0.7310;1.5683;
502.5000;0.7326;1.5800;
502.8000;0.7326;1.5870;
503.1000;0.7342;1.5847;
503.4000;0.7326;1.5706;
503.7000;0.7334;1.5683;
504.0000;0.7334;1.5753;
504.3000;0.7334;1.5800;
504.6000;0.7326;1.5753;
504.9000;0.7326;1.5800;
505.2000;0.7342;1.5823;
505.5000;0.7342;1.5893;
505.8000;0.7334;1.5870;
506.1000;0.7342;1.5870;
506.4000;0.7318;1.5823;
506.7000;0.7318;1.5776;
507.0000;0.7326;1.5870;
507.3000;0.7277;1.5683;
507.6000;0.7310;1.5800;
507.9000;0.7310;1.5800;
508.2000;0.7318;1.5823;
508.5000;0.7326;1.5847;
508.8000;0.7302;1.5823;
509.1000;0.7318;1.5800;
509.4000;0.7326;1.5800;
509.7000;0.7326;1.5753;
510.0000;0.7310;1.5730;
510.3000;0.7285;1.5706;
510.6000;0.7334;1.5800;
510.9000;0.7310;1.5800;
511.2000;0.7318;1.5847;
511.5000;0.7318;1.5823;
511.8000;0.7318;1.5753;
512.1000;0.7334;1.5800;
512.4000;0.7334;1.5753;
512.7000;0.7318;1.5706;
513.0000;0.7302;1.5566;
513.3000;0.7318;1.5566;
513.6000;0.7334;1.5636;
513.9000;0.7310;1.5636;
514.2000;0.7269;1.5519;
514.5000;0.7318;1.5706;
514.8000;0.7310;1.5706;
515.1000;0.7326;1.5776;
515.4000;0.7318;1.5823;
515.7000;0.7326;1.5870;
516.0000;0.7326;1.5847;
516.3000;0.7261;1.5753;
516.6000;0.7310;1.5800;
516.9000;0.7318;1.5800;
517.2000;0.7302;1.5706;
517.5000;0.7310;1.5776;
517.8000;0.7302;1.5730;
518.1000;0.7318;1.5753;
518.4000;0.7326;1.5800;
518.7000;0.7293;1.5917;
519.0000;0.7310;1.5940;
519.3000;0.7310;1.6010;
519.6000;0.7334;1.5964;
519.9000;0.7318;1.6104;
520.2000;0.7318;1.6127;
520.5000;0.7310;1.6034;
520.8000;0.7359;1.6057;
521.1000;0.7310;1.5964;
521.4000;0.7302;1.5870;
521.7000;0.7318;1.5917;
522.0000;0.7277;1.5870;
522.3000;0.7310;1.5964;
522.6000;0.7302;1.6010;
522.9000;0.7285;1.6081;
523.2000;0.7293;1.6081;
523.5000;0.7302;1.6081;
523.8000;0.7253;1.5964;
524.1000;0.7285;1.6010;
524.4000;0.7302;1.6010;
524.7000;0.7318;1.5987;
525.0000;0.7302;1.5870;
525.3000;0.7318;1.5940;
525.6000;0.7302;1.5940;
525.9000;0.7302;1.5964;
526.2000;0.7310;1.6057;
526.5000;0.7310;1.6034;
526.8000;0.7302;1.5964;
527.1000;0.7342;1.6010;
527.4000;0.7326;1.6034;
527.7000;0.7334;1.6151;
528.0000;0.7318;1.6081;
528.3000;0.7285;1.6057;
528.6000;0.7326;1.6057;
528.9000;0.7334;1.5987;
529.2000;0.7342;1.6034;
529.5000;0.7310;1.6081;
529.8000;0.7310;1.5987;
530.1000;0.7310;1.5940;
530.4000;0.7302;1.5940;
530.7000;0.7326;1.5870;
531.0000;0.7399;1.6034;
531.3000;0.7334;1.5917;
531.6000;0.7334;1.5940;
531.9000;0.7310;1.5893;
532.2000;0.7310;1.5823;
532.5000;0.7326;1.5847;
532.8000;0.7310;1.5776;
533.1000;0.7261;1.5683;
533.4000;0.7302;1.5776;
533.7000;0.7261;1.5636;
534.0000;0.7310;1.5800;
534.3000;0.7302;1.5800;
534.6000;0.7310;1.5753;
534.9000;0.7318;1.5847;
535.2000;0.7318;1.5893;
535.5000;0.7302;1.5940;
535.8000;0.7302;1.5964;
536.1000;0.7302;1.5964;
536.4000;0.7302;1.5893;
536.7000;0.7318;1.6010;
537.0000;0.7310;1.5917;
537.3000;0.7359;1.6081;
537.6000;0.7318;1.5917;
537.9000;0.7302;1.5776;
538.2000;0.7334;1.5847;
538.5000;0.7334;1.5893;
538.8000;0.7302;1.5776;
539.1000;0.7277;1.5730;
539.4000;0.7326;1.5823;
539.7000;0.7318;1.5823;
540.0000;0.7310;1.5823;
540.3000;0.7310;1.5776;
540.6000;0.7277;1.5659;
540.9000;0.7293;1.5753;
541.2000;0.7310;1.5870;
541.5000;0.7318;1.5847;
541.8000;0.7310;1.5893;
542.1000;0.7302;1.5870;
542.4000;0.7285;1.5870;
542.7000;0.7269;1.5870;
543.0000;0.7293;1.5940;
543.3000;0.7285;1.6010;
543.6000;0.7293;1.6127;
543.9000;0.7310;1.6081;
544.2000;0.7269;1.5964;
544.5000;0.7310;1.6151;
544.8000;0.7302;1.6127;
545.1000;0.7310;1.6198;
545.4000;0.7318;1.6081;
545.7000;0.7310;1.6081;
546.0000;0.7302;1.6034;
546.3000;0.7326;1.6081;
546.6000;0.7318;1.6057;
546.9000;0.7310;1.6034;
547.2000;0.7293;1.5964;
547.5000;0.7285;1.5870;
547.8000;0.7285;1.5893;
548.1000;0.7302;1.5940;
548.4000;0.7310;1.5893;
548.7000;0.7310;1.5940;
549.0000;0.7302;1.6081;
549.3000;0.7318;1.6104;
549.6000;0.7302;1.6057;
549.9000;0.7293;1.6010;
550.2000;0.7310;1.6034;
550.5000;0.7359;1.6151;
550.8000;0.7310;1.6010;
551.1000;0.7285;1.5987;
551.4000;0.7350;1.6174;
551.7000;0.7326;1.6174;
552.0000;0.7326;1.6174;
552.3000;0.7310;1.6127;
552.6000;0.7318;1.6104;
552.9000;0.7310;1.6104;
553.2000;0.7285;1.5964;
553.5000;0.7285;1.5917;
553.8000;0.7261;1.5893;
554.1000;0.7293;1.5964;
554.4000;0.7310;1.5940;
554.7000;0.7293;1.5964;
555.0000;0.7293;1.6057;
555.3000;0.7277;1.5964;
555.6000;0.7302;1.5940;
555.9000;0.7310;1.5917;
556.2000;0.7302;1.5987;
556.5000;0.7302;1.6010;
556.8000;0.7293;1.5987;
557.1000;0.7326;1.6034;
557.4000;0.7318;1.6010;
557.7000;0.7302;1.6127;
558.0000;0.7318;1.6221;
558.3000;0.7285;1.6198;
558.6000;0.7285;1.6198;
558.9000;0.7269;1.6221;
559.2000;0.7302;1.6221;
559.5000;0.7310;1.6174;
559.8000;0.7293;1.6221;
560.1000;0.7285;1.6268;
560.4000;0.7310;1.6268;
560.7000;0.7293;1.6245;
561.0000;0.7407;1.6502;
561.3000;0.7302;1.6291;
561.6000;0.7326;1.6268;
561.9000;0.7302;1.6221;
562.2000;0.7293;1.6151;
562.5000;0.7318;1.6221;
562.8000;0.7277;1.6127;
563.1000;0.7326;1.6268;
563.4000;0.7302;1.6268;
563.7000;0.7277;1.6245;
564.0000;0.7188;1.5917;
564.3000;0.7285;1.6010;
564.6000;0.7318;1.6151;
564.9000;0.7293;1.6174;
565.2000;0.7236;1.6198;
565.5000;0.7350;1.6455;
565.8000;0.7310;1.6408;
566.1000;0.7277;1.6291;
566.4000;0.7293;1.6198;
566.7000;0.7302;1.6151;
567.0000;0.7204;1.6010;
567.3000;0.7285;1.6221;
567.6000;0.7334;1.6268;
567.9000;0.7269;1.6174;
568.2000;0.7285;1.6221;
568.5000;0.7269;1.6174;
568.8000;0.7285;1.6174;
569.1000;0.7285;1.6151;
569.4000;0.7302;1.6268;
569.7000;0.7318;1.6385;
570.0000;0.7302;1.6362;
570.3000;0.7302;1.6268;
570.6000;0.7310;1.6245;
570.9000;0.7310;1.6362;
571.2000;0.7350;1.6362;
571.5000;0.7342;1.6338;
571.8000;0.7285;1.6338;
572.1000;0.7285;1.6291;
572.4000;0.7293;1.6338;
572.7000;0.7293;1.6291;
573.0000;0.7285;1.6221;
573.3000;0.7318;1.6268;
573.6000;0.7277;1.6174;
573.9000;0.7269;1.6151;
574.2000;0.7285;1.6174;
574.5000;0.7277;1.6198;
574.8000;0.7277;1.6174;
575.1000;0.7302;1.6174;
575.4000;0.7293;1.6174;
575.7000;0.7302;1.6151;
576.0000;0.7326;1.6198;
576.3000;0.7318;1.6245;
576.6000;0.7310;1.6315;
576.9000;0.7310;1.6268;
577.2000;0.7318;1.6291;
577.5000;0.7310;1.6338;
577.8000;0.7293;1.6385;
578.1000;0.7285;1.6315;
578.4000;0.7302;1.6291;
578.7000;0.7318;1.6268;
579.0000;0.7318;1.6221;
579.3000;0.7293;1.6221;
579.6000;0.7302;1.6221;
579.9000;0.7277;1.6127;
580.2000;0.7269;1.6151;
580.5000;0.7277;1.6245;
580.8000;0.7293;1.6291;
581.1000;0.7302;1.6245;
581.4000;0.7269;1.6127;
581.7000;0.7293;1.6151;
582.0000;0.7293;1.6127;
582.3000;0.7302;1.6151;
582.6000;0.7310;1.6198;
582.9000;0.7277;1.6057;
583.2000;0.7302;1.6151;
583.5000;0.7285;1.6057;
583.8000;0.7261;1.5987;
584.1000;0.7253;1.5987;
584.4000;0.7293;1.6057;
584.7000;0.7261;1.6057;
585.0000;0.7277;1.6174;
585.3000;0.7285;1.6291;
585.6000;0.7245;1.6151;
585.9000;0.7261;1.6198;
586.2000;0.7310;1.6362;
586.5000;0.7212;1.6104;
586.8000;0.7277;1.6291;
587.1000;0.7269;1.6245;
587.4000;0.7269;1.6174;
587.7000;0.7293;1.6315;
588.0000;0.7334;1.6525;
588.3000;0.7285;1.6362;
588.6000;0.7293;1.6385;
588.9000;0.7285;1.6245;
589.2000;0.7326;1.6291;
589.5000;0.7253;1.6010;
589.8000;0.7293;1.6151;
590.1000;0.7285;1.6127;
590.4000;0.7269;1.6104;
590.7000;0.7277;1.6151;
591.0000;0.7253;1.6057;
591.3000;0.7302;1.6174;
591.6000;0.7302;1.6151;
591.9000;0.7293;1.6174;
592.2000;0.7293;1.6268;
592.5000;0.7293;1.6245;
592.8000;0.7310;1.6245;
593.1000;0.7302;1.6174;
593.4000;0.7293;1.6151;
593.7000;0.7285;1.6151;
594.0000;0.7293;1.6127;
594.3000;0.7277;1.6057;
594.6000;0.7391;1.6338;
594.9000;0.7318;1.6174;
595.2000;0.7285;1.6151;
595.5000;0.7302;1.6174;
595.8000;0.7293;1.6198;
596.1000;0.7277;1.6198;
596.4000;0.7310;1.6268;
596.7000;0.7302;1.6151;
597.0000;0.7302;1.6104;
597.3000;0.7342;1.6291;
597.6000;0.7326;1.6221;
597.9000;0.7302;1.6221;
598.2000;0.7293;1.6198;
598.5000;0.7310;1.6198;
598.8000;0.7253;1.6104;
599.1000;0.7285;1.6245;
599.4000;0.7277;1.6268;
599.7000;0.7285;1.6338;
600.0000;0.7253;1.6338;
600.3000;0.7269;1.6338;
600.6000;0.7196;1.6174;
600.9000;0.7139;1.5964;
601.2000;0.7041;1.5659;
601.5000;0.6943;1.5449;
601.8000;0.6838;1.5308;
602.1000;0.6716;1.5051;
602.4000;0.6610;1.4840;
602.7000;0.6528;1.4676;
603.0000;0.6455;1.4559;
603.3000;0.6357;1.4372;
603.6000;0.6309;1.4278;
603.9000;0.6195;1.3974;
604.2000;0.6162;1.3857;
604.5000;0.6113;1.3763;
604.8000;0.6015;1.3459;
605.1000;0.5950;1.3272;
605.4000;0.5950;1.3248;
605.7000;0.5877;1.3178;
606.0000;0.5869;1.3248;
606.3000;0.5812;1.3155;
606.6000;0.5771;1.3061;
606.9000;0.5747;1.3108;
607.2000;0.5714;1.3014;
607.5000;0.5682;1.2874;
607.8000;0.5657;1.2874;
608.1000;0.5665;1.2921;
608.4000;0.5600;1.2874;
608.7000;0.5584;1.2851;
609.0000;0.5551;1.2827;
609.3000;0.5568;1.2897;
609.6000;0.5470;1.2663;
609.9000;0.5454;1.2663;
610.2000;0.5438;1.2663;
610.5000;0.5462;1.2780;
610.8000;0.5413;1.2687;
611.1000;0.5372;1.2640;
611.4000;0.5356;1.2616;
611.7000;0.5381;1.2663;
612.0000;0.5315;1.2546;
612.3000;0.5291;1.2570;
612.6000;0.5299;1.2570;
612.9000;0.5275;1.2546;
613.2000;0.5267;1.2593;
613.5000;0.5193;1.2453;
613.8000;0.5258;1.2616;
614.1000;0.5177;1.2476;
614.4000;0.5193;1.2523;
614.7000;0.5144;1.2336;
615.0000;0.5169;1.2289;
615.3000;0.5153;1.2265;
615.6000;0.5128;1.2359;
615.9000;0.5112;1.2265;
616.2000;0.5104;1.2265;
616.5000;0.5088;1.2195;
616.8000;0.5136;1.2219;
617.1000;0.5079;1.2148;
617.4000;0.5063;1.2219;
617.7000;0.5063;1.2242;
618.0000;0.5063;1.2265;
618.3000;0.5022;1.2148;
618.6000;0.5014;1.2148;
618.9000;0.4974;1.2101;
619.2000;0.5006;1.2242;
619.5000;0.4982;1.2195;
619.8000;0.4982;1.2195;
620.1000;0.4949;1.2195;
620.4000;0.4974;1.2195;
620.7000;0.4957;1.2172;
621.0000;0.4957;1.2101;
621.3000;0.4949;1.2031;
621.6000;0.4941;1.2055;
621.9000;0.4933;1.2125;
622.2000;0.4957;1.2195;
622.5000;0.4957;1.2148;
622.8000;0.4868;1.1938;
623.1000;0.4908;1.2055;
623.4000;0.4949;1.2219;
623.7000;0.4892;1.2172;
624.0000;0.4851;1.2125;
624.3000;0.4868;1.2172;
624.6000;0.4868;1.2195;
624.9000;0.4892;1.2265;
625.2000;0.4843;1.2195;
625.5000;0.4868;1.2242;
625.8000;0.4868;1.2219;
626.1000;0.4803;1.2078;
626.4000;0.4827;1.2125;
626.7000;0.4786;1.2008;
627.0000;0.4827;1.2101;
627.3000;0.4843;1.2055;
627.6000;0.4819;1.2078;
627.9000;0.4803;1.2148;
628.2000;0.4803;1.2125;
628.5000;0.4827;1.2101;
628.8000;0.4697;1.1774;
629.1000;0.4746;1.1891;
629.4000;0.4786;1.1984;
629.7000;0.4811;1.2031;
630.0000;0.4754;1.2031;
630.3000;0.4721;1.2008;
630.6000;0.4770;1.2055;
630.9000;0.4754;1.2008;
631.2000;0.4786;1.2055;
631.5000;0.4754;1.1984;
631.8000;0.4746;1.1961;
632.1000;0.4656;1.1750;
632.4000;0.4811;1.2031;
632.7000;0.4721;1.1891;
633.0000;0.4729;1.1867;
633.3000;0.4737;1.1891;
633.6000;0.4721;1.1821;
633.9000;0.4721;1.1797;
634.2000;0.4705;1.1774;
634.5000;0.4705;1.1750;
634.8000;0.4689;1.1750;
635.1000;0.4689;1.1727;
635.4000;0.4664;1.1587;
635.7000;0.4689;1.1657;
636.0000;0.4689;1.1680;
636.3000;0.4689;1.1680;
636.6000;0.4689;1.1657;
636.9000;0.4689;1.1704;
637.2000;0.4697;1.1774;
637.5000;0.4664;1.1774;
637.8000;0.4689;1.1774;
638.1000;0.4681;1.1774;
638.4000;0.4656;1.1774;
638.7000;0.4672;1.1704;
639.0000;0.4656;1.1680;
639.3000;0.4648;1.1704;
639.6000;0.4615;1.1587;
639.9000;0.4664;1.1750;
640.2000;0.4640;1.1680;
640.5000;0.4664;1.1657;
640.8000;0.4664;1.1633;
641.1000;0.4664;1.1633;
641.4000;0.4624;1.1587;
641.7000;0.4632;1.1587;
642.0000;0.4648;1.1610;
642.3000;0.4656;1.1727;
642.6000;0.4648;1.1797;
642.9000;0.4624;1.1727;
643.2000;0.4632;1.1727;
643.5000;0.4640;1.1867;
643.8000;0.4624;1.1844;
644.1000;0.4632;1.1821;
644.4000;0.4567;1.1633;
644.7000;0.4607;1.1797;
645.0000;0.4624;1.1891;
645.3000;0.4599;1.1844;
645.6000;0.4615;1.1844;
645.9000;0.4607;1.1821;
646.2000;0.4615;1.1750;
646.5000;0.4534;1.1587;
646.8000;0.4607;1.1774;
647.1000;0.4615;1.1680;
647.4000;0.4591;1.1704;
647.7000;0.4599;1.1774;
648.0000;0.4615;1.1774;
648.3000;0.4607;1.1750;
648.6000;0.4583;1.1774;
648.9000;0.4624;1.1938;
649.2000;0.4591;1.1867;
649.5000;0.4575;1.1797;
649.8000;0.4575;1.1867;
650.1000;0.4583;1.1891;
650.4000;0.4558;1.1844;
650.7000;0.4583;1.1891;
651.0000;0.4583;1.1867;
651.3000;0.4575;1.1821;
651.6000;0.4567;1.1821;
651.9000;0.4575;1.1867;
652.2000;0.4518;1.1727;
652.5000;0.4583;1.1750;
652.8000;0.4558;1.1704;
653.1000;0.4567;1.1797;
653.4000;0.4526;1.1680;
653.7000;0.4558;1.1704;
654.0000;0.4567;1.1774;
654.3000;0.4518;1.1750;
654.6000;0.4542;1.1914;
654.9000;0.4567;1.1938;
655.2000;0.4518;1.1797;
655.5000;0.4542;1.1867;
655.8000;0.4526;1.1867;
656.1000;0.4550;1.1984;
656.4000;0.4550;1.2008;
656.7000;0.4542;1.1984;
657.0000;0.4534;1.1914;
657.3000;0.4542;1.1891;
657.6000;0.4542;1.1961;
657.9000;0.4558;1.2008;
658.2000;0.4558;1.2008;
658.5000;0.4599;1.2125;
658.8000;0.4501;1.1961;
659.1000;0.4526;1.2078;
659.4000;0.4518;1.2031;
659.7000;0.4550;1.2078;
660.0000;0.4493;1.1867;
660.3000;0.4501;1.1867;
660.6000;0.4526;1.2008;
660.9000;0.4501;1.1891;
661.2000;0.4444;1.1774;
661.5000;0.4493;1.1844;
661.8000;0.4518;1.1938;
662.1000;0.4485;1.1914;
662.4000;0.4501;1.1914;
662.7000;0.4518;1.1938;
663.0000;0.4493;1.1844;
663.3000;0.4501;1.1821;
663.6000;0.4542;1.1891;
663.9000;0.4518;1.1844;
664.2000;0.4485;1.1774;
664.5000;0.4493;1.1821;
664.8000;0.4501;1.1797;
665.1000;0.4501;1.1891;
665.4000;0.4444;1.1774;
665.7000;0.4485;1.1867;
666.0000;0.4493;1.1844;
666.3000;0.4485;1.1844;
666.6000;0.4493;1.1891;
666.9000;0.4453;1.1750;
667.2000;0.4485;1.1891;
667.5000;0.4477;1.1867;
667.8000;0.4501;1.1938;
668.1000;0.4510;1.1914;
668.4000;0.4485;1.1844;
668.7000;0.4469;1.1961;
669.0000;0.4485;1.2031;
669.3000;0.4477;1.1938;
669.6000;0.4469;1.1938;
669.9000;0.4469;1.1938;
670.2000;0.4461;1.1914;
670.5000;0.4461;1.1984;
670.8000;0.4420;1.1821;
671.1000;0.4444;1.1914;
671.4000;0.4477;1.1914;
671.7000;0.4453;1.1914;
672.0000;0.4461;1.1867;
672.3000;0.4461;1.1821;
672.6000;0.4444;1.1914;
672.9000;0.4477;1.2055;
673.2000;0.4444;1.1914;
673.5000;0.4428;1.1891;
673.8000;0.4436;1.1891;
674.1000;0.4444;1.1844;
674.4000;0.4453;1.1891;
674.7000;0.4444;1.1938;
675.0000;0.4428;1.1867;
675.3000;0.4436;1.1867;
675.6000;0.4420;1.1821;
675.9000;0.4396;1.1844;
676.2000;0.4412;1.1914;
676.5000;0.4428;1.1844;
676.8000;0.4420;1.1844;
677.1000;0.4420;1.1821;
677.4000;0.4412;1.1891;
677.7000;0.4444;1.2008;
678.0000;0.4436;1.2008;
678.3000;0.4436;1.2078;
678.6000;0.4493;1.2265;
678.9000;0.4444;1.2031;
679.2000;0.4444;1.2078;
679.5000;0.4469;1.2101;
679.8000;0.4477;1.2101;
680.1000;0.4510;1.2101;
680.4000;0.4412;1.1867;
680.7000;0.4436;1.1821;
681.0000;0.4412;1.1727;
681.3000;0.4412;1.1774;
681.6000;0.4510;1.2008;
681.9000;0.4428;1.1891;
682.2000;0.4404;1.2008;
682.5000;0.4412;1.1984;
682.8000;0.4436;1.1938;
683.1000;0.4404;1.1891;
683.4000;0.4355;1.1727;
683.7000;0.4387;1.1821;
684.0000;0.4379;1.1797;
684.3000;0.4404;1.1774;
684.6000;0.4339;1.1633;
684.9000;0.4396;1.1821;
685.2000;0.4412;1.1961;
685.5000;0.4404;1.1984;
685.8000;0.4396;1.2055;
686.1000;0.4379;1.1961;
686.4000;0.4396;1.1961;
686.7000;0.4371;1.1891;
687.0000;0.4420;1.2125;
687.3000;0.4404;1.2078;
687.6000;0.4379;1.2078;
687.9000;0.4396;1.2101;
688.2000;0.4396;1.2055;
688.5000;0.4387;1.2031;
688.8000;0.4363;1.2031;
689.1000;0.4396;1.2125;
689.4000;0.4396;1.2101;
689.7000;0.4404;1.2172;
690.0000;0.4396;1.2125;
690.3000;0.4420;1.2125;
690.6000;0.4363;1.2008;
690.9000;0.4387;1.2008;
691.2000;0.4363;1.2101;
691.5000;0.4371;1.2031;
691.8000;0.4387;1.2031;
692.1000;0.4379;1.2078;
692.4000;0.4371;1.2125;
692.7000;0.4396;1.2172;
693.0000;0.4363;1.2008;
693.3000;0.4379;1.2031;
693.6000;0.4379;1.2031;
693.9000;0.4347;1.1961;
694.2000;0.4363;1.1961;
694.5000;0.4379;1.1984;
694.8000;0.4363;1.2008;
695.1000;0.4396;1.2008;
695.4000;0.4339;1.1984;
695.7000;0.4371;1.2031;
696.0000;0.4412;1.2125;
696.3000;0.4371;1.2078;
696.6000;0.4371;1.2101;
696.9000;0.4330;1.1961;
697.2000;0.4347;1.1961;
697.5000;0.4371;1.2031;
697.8000;0.4322;1.2008;
698.1000;0.4282;1.1867;
698.4000;0.4322;1.2078;
698.7000;0.4379;1.2219;
699.0000;0.4371;1.2031;
699.3000;0.4355;1.2031;
699.6000;0.4306;1.1914;
699.9000;0.4355;1.2055;
700.2000;0.4347;1.2008;
700.5000;0.4339;1.2008;
700.8000;0.4347;1.1961;
701.1000;0.4355;1.2008;
701.4000;0.4339;1.1938;
701.7000;0.4322;1.1984;
702.0000;0.4339;1.2078;
702.3000;0.4322;1.2055;
702.6000;0.4306;1.2031;
702.9000;0.4322;1.1984;
703.2000;0.4322;1.1984;
703.5000;0.4347;1.2008;
703.8000;0.4322;1.1984;
704.1000;0.4387;1.2148;
704.4000;0.4314;1.2031;
704.7000;0.4314;1.2125;
705.0000;0.4363;1.2242;
705.3000;0.4314;1.2172;
705.6000;0.4314;1.2148;
705.9000;0.4322;1.2101;
706.2000;0.4339;1.2219;
706.5000;0.4298;1.2008;
706.8000;0.4322;1.2031;
707.1000;0.4306;1.1914;
707.4000;0.4363;1.1984;
707.7000;0.4396;1.2148;
708.0000;0.4298;1.1914;
708.3000;0.4314;1.2008;
708.6000;0.4314;1.2055;
708.9000;0.4306;1.2008;
709.2000;0.4314;1.2055;
709.5000;0.4330;1.2008;
709.8000;0.4330;1.1961;
710.1000;0.4330;1.1984;
710.4000;0.4314;1.1984;
710.7000;0.4330;1.1961;
711.0000;0.4339;1.2008;
711.3000;0.4322;1.2008;
711.6000;0.4330;1.2008;
711.9000;0.4306;1.1938;
712.2000;0.4306;1.1891;
712.5000;0.4322;1.1844;
712.8000;0.4322;1.1844;
713.1000;0.4306;1.1821;
713.4000;0.4314;1.2008;
713.7000;0.4306;1.2031;
714.0000;0.4330;1.2101;
714.3000;0.4306;1.2031;
714.6000;0.4298;1.2031;
714.9000;0.4322;1.2055;
715.2000;0.4314;1.2125;
715.5000;0.4274;1.2008;
715.8000;0.4314;1.2055;
716.1000;0.4298;1.2078;
716.4000;0.4298;1.2031;
716.7000;0.4306;1.2008;
717.0000;0.4274;1.1961;
717.3000;0.4322;1.2055;
717.6000;0.4290;1.2055;
717.9000;0.4306;1.2125;
718.2000;0.4290;1.2148;
718.5000;0.4314;1.2195;
718.8000;0.4290;1.2125;
719.1000;0.4290;1.2055;
719.4000;0.4298;1.2078;
719.7000;0.4330;1.2172;
720.0000;0.4298;1.2078;
720.3000;0.4306;1.2055;
720.6000;0.4290;1.1961;
720.9000;0.4217;1.1844;
721.2000;0.4282;1.2031;
721.5000;0.4298;1.2101;
721.8000;0.4314;1.2242;
722.1000;0.4274;1.2172;
722.4000;0.4298;1.2195;
722.7000;0.4290;1.2265;
723.0000;0.4290;1.2265;
723.3000;0.4282;1.2265;
723.6000;0.4282;1.2289;
723.9000;0.4298;1.2289;
724.2000;0.4257;1.2195;
724.5000;0.4274;1.2195;
724.8000;0.4290;1.2242;
725.1000;0.4298;1.2242;
725.4000;0.4265;1.2172;
725.7000;0.4298;1.2148;
726.0000;0.4274;1.2101;
726.3000;0.4330;1.2195;
726.6000;0.4274;1.2101;
726.9000;0.4265;1.2101;
727.2000;0.4265;1.2125;
727.5000;0.4274;1.2172;
727.8000;0.4290;1.2101;
728.1000;0.4265;1.2055;
728.4000;0.4282;1.2125;
728.7000;0.4265;1.2148;
729.0000;0.4282;1.2312;
729.3000;0.4282;1.2406;
729.6000;0.4233;1.2195;
729.9000;0.4265;1.2195;
730.2000;0.4282;1.2195;
730.5000;0.4290;1.2101;
730.8000;0.4282;1.2055;
731.1000;0.4257;1.1961;
731.4000;0.4265;1.2008;
731.7000;0.4274;1.2172;
732.0000;0.4265;1.2148;
732.3000;0.4249;1.2055;
732.6000;0.4265;1.2101;
732.9000;0.4290;1.2289;
733.2000;0.4274;1.2336;
733.5000;0.4257;1.2336;
733.8000;0.4290;1.2359;
734.1000;0.4274;1.2336;
734.4000;0.4274;1.2336;
734.7000;0.4257;1.2312;
735.0000;0.4274;1.2289;
735.3000;0.4274;1.2265;
735.6000;0.4298;1.2265;
735.9000;0.4249;1.2195;
736.2000;0.4274;1.2242;
736.5000;0.4241;1.2172;
736.8000;0.4290;1.2289;
737.1000;0.4249;1.2148;
737.4000;0.4249;1.2101;
737.7000;0.4176;1.1891;
738.0000;0.4233;1.2148;
738.3000;0.4257;1.2219;
738.6000;0.4249;1.2101;
738.9000;0.4233;1.2008;
739.2000;0.4249;1.2101;
739.5000;0.4265;1.2148;
739.8000;0.4265;1.2265;
740.1000;0.4233;1.2219;
740.4000;0.4241;1.2219;
740.7000;0.4314;1.2406;
741.0000;0.4249;1.2289;
741.3000;0.4257;1.2265;
741.6000;0.4233;1.2172;
741.9000;0.4257;1.2148;
742.2000;0.4233;1.2148;
742.5000;0.4241;1.2148;
742.8000;0.4225;1.2078;
743.1000;0.4233;1.2148;
743.4000;0.4257;1.2289;
743.7000;0.4241;1.2242;
744.0000;0.4257;1.2242;
744.3000;0.4290;1.2359;
744.6000;0.4249;1.2242;
744.9000;0.4249;1.2125;
745.2000;0.4217;1.2055;
745.5000;0.4241;1.2148;
745.8000;0.4249;1.2172;
746.1000;0.4314;1.2289;
746.4000;0.4249;1.2125;
746.7000;0.4249;1.2125;
747.0000;0.4249;1.2125;
747.3000;0.4241;1.2125;
747.6000;0.4265;1.2031;
747.9000;0.4249;1.1961;
748.2000;0.4184;1.1844;
748.5000;0.4208;1.1914;
748.8000;0.4225;1.1938;
749.1000;0.4241;1.1961;
749.4000;0.4265;1.1961;
749.7000;0.4241;1.1844;
750.0000;0.4233;1.1867;
750.3000;0.4217;1.1867;
750.6000;0.4306;1.2078;
750.9000;0.4233;1.1867;
751.2000;0.4233;1.1914;
751.5000;0.4249;1.2008;
751.8000;0.4217;1.1867;
752.1000;0.4200;1.1867;
752.4000;0.4241;1.1914;
752.7000;0.4225;1.1938;
753.0000;0.4233;1.1961;
753.3000;0.4225;1.1961;
753.6000;0.4208;1.2078;
753.9000;0.4257;1.2125;
754.2000;0.4233;1.2101;
754.5000;0.4241;1.2195;
754.8000;0.4249;1.2078;
755.1000;0.4184;1.1891;
755.4000;0.4241;1.2055;
755.7000;0.4241;1.2195;
756.0000;0.4241;1.2195;
756.3000;0.4208;1.2078;
756.6000;0.4233;1.2125;
756.9000;0.4249;1.2078;
757.2000;0.4249;1.2101;
757.5000;0.4217;1.2008;
757.8000;0.4241;1.2078;
758.1000;0.4208;1.2078;
758.4000;0.4200;1.2172;
758.7000;0.4233;1.2382;
759.0000;0.4225;1.2429;
759.3000;0.4184;1.2336;
759.6000;0.4225;1.2429;
759.9000;0.4274;1.2546;
760.2000;0.4208;1.2429;
760.5000;0.4217;1.2406;
760.8000;0.4225;1.2476;
761.1000;0.4233;1.2499;
761.4000;0.4233;1.2593;
761.7000;0.4208;1.2523;
762.0000;0.4225;1.2523;
762.3000;0.4225;1.2570;
762.6000;0.4225;1.2476;
762.9000;0.4217;1.2429;
763.2000;0.4225;1.2453;
763.5000;0.4200;1.2382;
763.8000;0.4208;1.2476;
764.1000;0.4208;1.2312;
764.4000;0.4225;1.2265;
764.7000;0.4200;1.2312;
765.0000;0.4314;1.2640;
765.3000;0.4225;1.2382;
765.6000;0.4225;1.2336;
765.9000;0.4192;1.2242;
766.2000;0.4217;1.2289;
766.5000;0.4217;1.2219;
766.8000;0.4217;1.2312;
767.1000;0.4192;1.2289;
767.4000;0.4217;1.2336;
767.7000;0.4200;1.2195;
768.0000;0.4200;1.2125;
768.3000;0.4208;1.2219;
768.6000;0.4200;1.2172;
768.9000;0.4192;1.2172;
769.2000;0.4200;1.2242;
769.5000;0.4208;1.2219;
769.8000;0.4225;1.2242;
770.1000;0.4298;1.2406;
770.4000;0.4217;1.2265;
770.7000;0.4225;1.2242;
771.0000;0.4225;1.2265;
771.3000;0.4208;1.2336;
771.6000;0.4249;1.2453;
771.9000;0.4127;1.2101;
772.2000;0.4208;1.2289;
772.5000;0.4217;1.2219;
772.8000;0.4208;1.2195;
773.1000;0.4200;1.2125;
773.4000;0.4192;1.2078;
773.7000;0.4184;1.2101;
774.0000;0.4249;1.2219;
774.3000;0.4208;1.2265;
774.6000;0.4290;1.2476;
774.9000;0.4192;1.2312;
775.2000;0.4208;1.2406;
775.5000;0.4192;1.2406;
775.8000;0.4192;1.2382;
776.1000;0.4143;1.2289;
776.4000;0.4208;1.2406;
776.7000;0.4306;1.2663;
777.0000;0.4168;1.2382;
777.3000;0.4184;1.2499;
777.6000;0.4225;1.2616;
777.9000;0.4192;1.2570;
778.2000;0.4322;1.2757;
778.5000;0.4200;1.2429;
778.8000;0.4168;1.2265;
779.1000;0.4184;1.2359;
779.4000;0.4192;1.2429;
779.7000;0.4176;1.2359;
780.0000;0.4176;1.2312;
780.3000;0.4192;1.2336;
780.6000;0.4192;1.2406;
780.9000;0.4168;1.2289;
781.2000;0.4200;1.2382;
781.5000;0.4168;1.2242;
781.8000;0.4160;1.2195;
782.1000;0.4192;1.2312;
782.4000;0.4184;1.2312;
782.7000;0.4184;1.2359;
783.0000;0.4192;1.2289;
783.3000;0.4176;1.2312;
783.6000;0.4184;1.2359;
783.9000;0.4192;1.2336;
784.2000;0.4192;1.2382;
784.5000;0.4168;1.2453;
784.8000;0.4176;1.2476;
785.1000;0.4208;1.2523;
785.4000;0.4127;1.2359;
785.7000;0.4217;1.2570;
786.0000;0.4184;1.2523;
786.3000;0.4192;1.2570;
786.6000;0.4176;1.2616;
786.9000;0.4184;1.2616;
787.2000;0.4184;1.2570;
787.5000;0.4208;1.2546;
787.8000;0.4184;1.2499;
788.1000;0.4192;1.2476;
788.4000;0.4192;1.2453;
788.7000;0.4176;1.2359;
789.0000;0.4176;1.2406;
789.3000;0.4176;1.2265;
789.6000;0.4192;1.2242;
789.9000;0.4176;1.2219;
790.2000;0.4176;1.2312;
790.5000;0.4192;1.2382;
790.8000;0.4176;1.2406;
791.1000;0.4143;1.2382;
791.4000;0.4176;1.2359;
791.7000;0.4176;1.2289;
792.0000;0.4200;1.2312;
792.3000;0.4176;1.2359;
792.6000;0.4176;1.2289;
792.9000;0.4184;1.2242;
793.2000;0.4192;1.2359;
793.5000;0.4184;1.2265;
793.8000;0.4135;1.2148;
794.1000;0.4257;1.2476;
794.4000;0.4200;1.2289;
794.7000;0.4200;1.2242;
795.0000;0.4176;1.2125;
795.3000;0.4168;1.2148;
795.6000;0.4176;1.2242;
795.9000;0.4168;1.2219;
796.2000;0.4200;1.2336;
796.5000;0.4135;1.2195;
796.8000;0.4176;1.2219;
797.1000;0.4184;1.2242;
797.4000;0.4160;1.2055;
797.7000;0.4168;1.2078;
798.0000;0.4192;1.2148;
798.3000;0.4192;1.2242;
798.6000;0.4176;1.2195;
798.9000;0.4176;1.2242;
799.2000;0.4176;1.2219;
799.5000;0.4176;1.2219;
799.8000;0.4168;1.2242;
800.1000;0.4168;1.2289;
800.4000;0.4160;1.2359;
800.7000;0.4168;1.2359;
801.0000;0.4168;1.2336;
801.3000;0.4168;1.2382;
801.6000;0.4176;1.2429;
801.9000;0.4151;1.2406;
802.2000;0.4168;1.2359;
802.5000;0.4176;1.2312;
802.8000;0.4200;1.2429;
803.1000;0.4160;1.2195;
803.4000;0.4192;1.2172;
803.7000;0.4168;1.2148;
804.0000;0.4168;1.2148;
804.3000;0.4208;1.2289;
804.6000;0.4160;1.2172;
804.9000;0.4176;1.2219;
805.2000;0.4151;1.2101;
805.5000;0.4176;1.2148;
805.8000;0.4168;1.2195;
806.1000;0.4184;1.2265;
806.4000;0.4160;1.2289;
806.7000;0.4176;1.2336;
807.0000;0.4184;1.2382;
807.3000;0.4176;1.2289;
807.6000;0.4160;1.2312;
807.9000;0.4168;1.2359;
808.2000;0.4168;1.2219;
808.5000;0.4176;1.2242;
808.8000;0.4151;1.2078;
809.1000;0.4135;1.2125;
809.4000;0.4160;1.2172;
809.7000;0.4200;1.2219;
810.0000;0.4160;1.2172;
810.3000;0.4135;1.2101;
810.6000;0.4143;1.2172;
810.9000;0.4176;1.2219;
811.2000;0.4168;1.2148;
811.5000;0.4176;1.2219;
811.8000;0.4135;1.2055;
812.1000;0.4192;1.2101;
812.4000;0.4176;1.2148;
812.7000;0.4151;1.2148;
813.0000;0.4078;1.2008;
813.3000;0.4143;1.2195;
813.6000;0.4151;1.2265;
813.9000;0.4192;1.2382;
814.2000;0.4135;1.2359;
814.5000;0.4143;1.2382;
814.8000;0.4151;1.2406;
815.1000;0.4046;1.2172;
815.4000;0.4192;1.2499;
815.7000;0.4143;1.2312;
816.0000;0.4160;1.2359;
816.3000;0.4151;1.2336;
816.6000;0.4151;1.2289;
816.9000;0.4168;1.2312;
817.2000;0.4184;1.2265;
817.5000;0.4151;1.2172;
817.8000;0.4160;1.2242;
818.1000;0.4135;1.2289;
818.4000;0.4143;1.2359;
818.7000;0.4151;1.2406;
819.0000;0.4168;1.2406;
819.3000;0.4160;1.2336;
819.6000;0.4151;1.2336;
819.9000;0.4086;1.2101;
820.2000;0.4143;1.2172;
820.5000;0.4135;1.2055;
820.8000;0.4151;1.2101;
821.1000;0.4151;1.2055;
821.4000;0.4143;1.2055;
821.7000;0.4135;1.2172;
822.0000;0.4151;1.2219;
822.3000;0.4151;1.2242;
822.6000;0.4143;1.2242;
822.9000;0.4143;1.2195;
823.2000;0.4127;1.2078;
823.5000;0.4143;1.2101;
823.8000;0.4151;1.2055;
824.1000;0.4143;1.2125;
824.4000;0.4151;1.2125;
824.7000;0.4143;1.2101;
825.0000;0.4127;1.2101;
825.3000;0.4127;1.2078;
825.6000;0.4135;1.2101;
825.9000;0.4143;1.2078;
826.2000;0.4143;1.2031;
826.5000;0.4143;1.2031;
826.8000;0.4135;1.2055;
827.1000;0.4160;1.2195;
827.4000;0.4160;1.2101;
827.7000;0.4151;1.2078;
828.0000;0.4151;1.2125;
828.3000;0.4135;1.2195;
828.6000;0.4151;1.2172;
828.9000;0.4160;1.2148;
829.2000;0.4143;1.2101;
829.5000;0.4208;1.2312;
829.8000;0.4151;1.2195;
830.1000;0.4103;1.2125;
830.4000;0.4143;1.2172;
830.7000;0.4160;1.2242;
831.0000;0.4086;1.2078;
831.3000;0.4160;1.2195;
831.6000;0.4135;1.2125;
831.9000;0.4094;1.2078;
832.2000;0.4143;1.2219;
832.5000;0.4135;1.2265;
832.8000;0.4127;1.2148;
833.1000;0.4143;1.2125;
833.4000;0.4135;1.2078;
833.7000;0.4160;1.2148;
834.0000;0.4151;1.2172;
834.3000;0.4143;1.2125;
834.6000;0.4127;1.2078;
834.9000;0.4119;1.2148;
835.2000;0.4135;1.2172;
835.5000;0.4103;1.2125;
835.8000;0.4143;1.2148;
836.1000;0.4119;1.2101;
836.4000;0.4119;1.2242;
836.7000;0.4119;1.2359;
837.0000;0.4111;1.2312;
837.3000;0.4127;1.2289;
837.6000;0.4111;1.2265;
837.9000;0.4127;1.2289;
838.2000;0.4021;1.2008;
838.5000;0.4127;1.2242;
838.8000;0.4119;1.2265;
839.1000;0.4192;1.2289;
839.4000;0.4160;1.2172;
839.7000;0.4233;1.2429;
840.0000;0.4143;1.2242;
840.3000;0.4127;1.2242;
840.6000;0.4151;1.2219;
840.9000;0.4119;1.2101;
841.2000;0.4119;1.2148;
841.5000;0.4103;1.2195;
841.8000;0.4127;1.2265;
842.1000;0.4127;1.2219;
842.4000;0.4127;1.2242;
842.7000;0.4143;1.2289;
843.0000;0.4135;1.2265;
843.3000;0.4143;1.2265;
843.6000;0.4119;1.2219;
843.9000;0.4151;1.2242;
844.2000;0.4127;1.2195;
844.5000;0.4127;1.2148;
844.8000;0.4127;1.2219;
845.1000;0.4119;1.2289;
845.4000;0.4127;1.2289;
845.7000;0.4103;1.2242;
846.0000;0.4119;1.2336;
846.3000;0.4103;1.2312;
846.6000;0.4094;1.2336;
846.9000;0.4135;1.2359;
847.2000;0.4127;1.2289;
847.5000;0.4119;1.2265;
847.8000;0.4127;1.2289;
848.1000;0.4135;1.2312;
848.4000;0.4127;1.2312;
848.7000;0.4135;1.2265;
849.0000;0.4135;1.2219;
849.3000;0.4135;1.2219;
849.6000;0.4111;1.2219;
849.9000;0.4143;1.2359;
850.2000;0.4127;1.2265;
850.5000;0.4160;1.2382;
850.8000;0.4127;1.2219;
851.1000;0.4119;1.2219;
851.4000;0.4119;1.2172;
851.7000;0.4143;1.2195;
852.0000;0.4151;1.2195;
852.3000;0.4135;1.2242;
852.6000;0.4176;1.2429;
852.9000;0.4127;1.2406;
853.2000;0.4111;1.2336;
853.5000;0.4119;1.2406;
853.8000;0.4127;1.2406;
854.1000;0.4135;1.2429;
854.4000;0.4127;1.2476;
854.7000;0.4119;1.2453;
855.0000;0.4127;1.2429;
855.3000;0.4160;1.2499;
855.6000;0.4094;1.2265;
855.9000;0.4119;1.2406;
856.2000;0.4119;1.2476;
856.5000;0.4160;1.2476;
856.8000;0.4127;1.2406;
857.1000;0.4127;1.2406;
857.4000;0.4119;1.2406;
857.7000;0.4127;1.2453;
858.0000;0.4151;1.2453;
858.3000;0.4127;1.2359;
858.6000;0.4127;1.2406;
858.9000;0.4127;1.2382;
859.2000;0.4119;1.2312;
859.5000;0.4143;1.2476;
859.8000;0.4103;1.2336;
860.1000;0.4094;1.2336;
860.4000;0.4103;1.2429;
860.7000;0.4119;1.2453;
861.0000;0.4094;1.2406;
861.3000;0.4021;1.2265;
861.6000;0.4127;1.2570;
861.9000;0.4119;1.2546;
862.2000;0.4119;1.2546;
862.5000;0.4103;1.2453;
862.8000;0.4143;1.2523;
863.1000;0.4127;1.2499;
863.4000;0.4127;1.2616;
863.7000;0.4135;1.2733;
864.0000;0.4103;1.2570;
864.3000;0.4119;1.2546;
864.6000;0.4127;1.2523;
864.9000;0.4127;1.2593;
865.2000;0.4119;1.2640;
865.5000;0.4111;1.2640;
865.8000;0.4127;1.2640;
866.1000;0.4094;1.2546;
866.4000;0.4086;1.2406;
866.7000;0.4119;1.2499;
867.0000;0.4062;1.2336;
867.3000;0.4111;1.2429;
867.6000;0.4111;1.2453;
867.9000;0.4119;1.2523;
868.2000;0.4086;1.2429;
868.5000;0.4151;1.2593;
868.8000;0.4135;1.2593;
869.1000;0.4119;1.2570;
869.4000;0.4119;1.2476;
869.7000;0.4094;1.2336;
870.0000;0.4176;1.2476;
870.3000;0.4119;1.2359;
870.6000;0.4119;1.2406;
870.9000;0.4111;1.2453;
871.2000;0.4103;1.2453;
871.5000;0.4127;1.2382;
871.8000;0.4103;1.2219;
872.1000;0.4119;1.2242;
872.4000;0.4111;1.2242;
872.7000;0.4103;1.2195;
873.0000;0.4111;1.2219;
873.3000;0.4119;1.2172;
873.6000;0.4103;1.2172;
873.9000;0.4119;1.2195;
874.2000;0.4135;1.2172;
874.5000;0.4103;1.2242;
874.8000;0.4119;1.2382;
875.1000;0.4111;1.2312;
875.4000;0.4111;1.2382;
875.7000;0.4111;1.2336;
876.0000;0.4103;1.2289;
876.3000;0.4143;1.2336;
876.6000;0.4103;1.2195;
876.9000;0.4094;1.2148;
877.2000;0.4119;1.2219;
877.5000;0.4111;1.2242;
877.8000;0.4143;1.2359;
878.1000;0.4119;1.2359;
878.4000;0.4070;1.2289;
878.7000;0.4094;1.2453;
879.0000;0.4111;1.2453;
879.3000;0.4119;1.2570;
879.6000;0.4103;1.2593;
879.9000;0.4094;1.2546;
880.2000;0.4111;1.2570;
880.5000;0.4192;1.2804;
880.8000;0.4103;1.2663;
881.1000;0.4111;1.2616;
881.4000;0.4094;1.2593;
881.7000;0.4094;1.2546;
882.0000;0.4086;1.2499;
882.3000;0.4086;1.2499;
882.6000;0.4078;1.2546;
882.9000;0.4094;1.2593;
883.2000;0.4103;1.2570;
883.5000;0.4078;1.2453;
883.8000;0.4094;1.2406;
884.1000;0.4111;1.2429;
884.4000;0.4127;1.2453;
884.7000;0.4094;1.2406;
885.0000;0.4070;1.2359;
885.3000;0.4135;1.2593;
885.6000;0.4086;1.2453;
885.9000;0.4094;1.2499;
886.2000;0.4119;1.2546;
886.5000;0.4103;1.2453;
886.8000;0.4094;1.2336;
887.1000;0.4086;1.2289;
887.4000;0.4078;1.2336;
887.7000;0.4119;1.2499;
888.0000;0.4070;1.2429;
888.3000;0.4086;1.2476;
888.6000;0.4127;1.2593;
888.9000;0.4094;1.2406;
889.2000;0.4078;1.2336;
889.5000;0.4013;1.2125;
889.8000;0.4200;1.2640;
890.1000;0.4127;1.2359;
890.4000;0.4094;1.2336;
890.7000;0.4094;1.2359;
891.0000;0.4094;1.2382;
891.3000;0.4094;1.2546;
891.6000;0.4094;1.2640;
891.9000;0.4103;1.2640;
892.2000;0.4103;1.2546;
892.5000;0.4094;1.2570;
892.8000;0.4176;1.2780;
893.1000;0.4062;1.2406;
893.4000;0.4103;1.2453;
893.7000;0.4127;1.2570;
894.0000;0.4151;1.2593;
894.3000;0.4094;1.2336;
894.6000;0.4094;1.2406;
894.9000;0.4103;1.2453;
895.2000;0.4127;1.2546;
895.5000;0.4103;1.2382;
895.8000;0.4111;1.2406;
896.1000;0.4094;1.2382;
896.4000;0.4103;1.2406;
896.7000;0.4119;1.2382;
897.0000;0.4094;1.2359;
897.3000;0.4103;1.2359;
897.6000;0.4111;1.2359;
897.9000;0.4111;1.2406;
898.2000;0.4086;1.2406;
898.5000;0.4086;1.2312;
898.8000;0.4111;1.2336;
899.1000;0.4111;1.2336;
899.4000;0.4119;1.2429;
899.7000;0.4103;1.2429;
900.0000;0.4143;1.2523;
900.3000;0.4103;1.2382;
900.6000;0.4086;1.2406;
900.9000;0.4151;1.2640;
901.2000;0.4103;1.2429;
901.5000;0.4111;1.2523;
901.8000;0.4013;1.2289;
902.1000;0.4094;1.2499;
902.4000;0.4070;1.2382;
902.7000;0.4111;1.2499;
903.0000;0.4119;1.2570;
903.3000;0.4094;1.2523;
903.6000;0.4094;1.2476;
903.9000;0.4037;1.2265;
904.2000;0.4086;1.2453;
904.5000;0.4103;1.2523;
904.8000;0.4086;1.2523;
905.1000;0.4054;1.2429;
905.4000;0.4135;1.2593;
905.7000;0.4086;1.2499;
906.0000;0.4119;1.2523;
906.3000;0.4094;1.2499;
906.6000;0.4086;1.2476;
906.9000;0.4143;1.2663;
907.2000;0.4086;1.2546;
907.5000;0.4151;1.2687;
907.8000;0.4094;1.2616;
908.1000;0.4094;1.2523;
908.4000;0.4111;1.2499;
908.7000;0.4070;1.2289;
909.0000;0.4208;1.2570;
909.3000;0.4111;1.2312;
909.6000;0.4111;1.2336;
909.9000;0.4094;1.2312;
910.2000;0.4103;1.2289;
910.5000;0.4086;1.2406;
910.8000;0.4119;1.2429;
911.1000;0.4086;1.2429;
911.4000;0.4086;1.2453;
911.7000;0.4119;1.2499;
912.0000;0.4151;1.2593;
912.3000;0.4078;1.2336;
912.6000;0.4103;1.2453;
912.9000;0.4086;1.2406;
913.2000;0.4086;1.2429;
913.5000;0.4062;1.2382;
913.8000;0.4111;1.2499;
914.1000;0.4094;1.2382;
914.4000;0.4094;1.2289;
914.7000;0.4086;1.2453;
915.0000;0.4070;1.2359;
915.3000;0.4094;1.2453;
915.6000;0.4103;1.2476;
915.9000;0.4086;1.2453;
916.2000;0.4086;1.2476;
916.5000;0.4094;1.2499;
916.8000;0.4086;1.2546;
917.1000;0.4151;1.2710;
917.4000;0.4062;1.2453;
917.7000;0.4078;1.2546;
918.0000;0.4086;1.2476;
918.3000;0.4078;1.2476;
918.6000;0.4062;1.2523;
918.9000;0.4078;1.2593;
919.2000;0.4086;1.2476;
919.5000;0.4078;1.2593;
919.8000;0.4111;1.2687;
920.1000;0.4103;1.2710;
920.4000;0.4070;1.2616;
920.7000;0.4070;1.2616;
921.0000;0.4078;1.2570;
921.3000;0.4086;1.2523;
921.6000;0.4086;1.2453;
921.9000;0.4054;1.2406;
922.2000;0.4078;1.2476;
922.5000;0.4111;1.2593;
922.8000;0.4062;1.2429;
923.1000;0.4103;1.2523;
923.4000;0.4054;1.2453;
923.7000;0.4078;1.2429;
924.0000;0.4078;1.2359;
924.3000;0.4078;1.2429;
924.6000;0.4070;1.2453;
924.9000;0.4070;1.2476;
925.2000;0.4086;1.2546;
925.5000;0.4062;1.2453;
925.8000;0.4086;1.2453;
926.1000;0.4078;1.2406;
926.4000;0.4046;1.2429;
926.7000;0.4094;1.2570;
927.0000;0.4086;1.2640;
927.3000;0.4094;1.2710;
927.6000;0.4070;1.2710;
927.9000;0.4078;1.2663;
928.2000;0.4062;1.2593;
928.5000;0.4086;1.2570;
928.8000;0.4078;1.2476;
929.1000;0.4103;1.2499;
929.4000;0.4086;1.2523;
929.7000;0.4062;1.2523;
930.0000;0.4103;1.2570;
930.3000;0.4078;1.2523;
930.6000;0.4086;1.2429;
930.9000;0.4029;1.2289;
931.2000;0.4094;1.2453;
931.5000;0.4094;1.2499;
931.8000;0.4094;1.2546;
932.1000;0.4103;1.2523;
932.4000;0.4086;1.2499;
932.7000;0.4086;1.2453;
933.0000;0.4151;1.2593;
933.3000;0.4094;1.2382;
933.6000;0.4094;1.2453;
933.9000;0.4070;1.2359;
934.2000;0.4078;1.2312;
934.5000;0.4086;1.2336;
934.8000;0.4070;1.2312;
935.1000;0.4086;1.2429;
935.4000;0.4078;1.2453;
935.7000;0.4070;1.2570;
936.0000;0.4086;1.2616;
936.3000;0.4070;1.2499;
936.6000;0.4078;1.2499;
936.9000;0.4070;1.2476;
937.2000;0.4070;1.2499;
937.5000;0.4062;1.2429;
937.8000;0.4062;1.2453;
938.1000;0.4062;1.2406;
938.4000;0.4078;1.2406;
938.7000;0.4094;1.2429;
939.0000;0.4054;1.2265;
939.3000;0.4078;1.2359;
939.6000;0.4103;1.2499;
939.9000;0.4094;1.2476;
940.2000;0.4070;1.2359;
940.5000;0.4111;1.2476;
940.8000;0.4078;1.2382;
941.1000;0.4078;1.2382;
941.4000;0.4111;1.2499;
941.7000;0.4070;1.2406;
942.0000;0.4054;1.2382;
942.3000;0.4054;1.2359;
942.6000;0.4094;1.2476;
942.9000;0.4094;1.2382;
943.2000;0.4070;1.2476;
943.5000;0.4078;1.2476;
943.8000;0.4037;1.2312;
944.1000;0.4070;1.2265;
944.4000;0.4078;1.2359;
944.7000;0.4078;1.2219;
945.0000;0.4103;1.2265;
945.3000;0.4086;1.2312;
945.6000;0.4078;1.2336;
945.9000;0.4094;1.2312;
946.2000;0.4078;1.2289;
946.5000;0.4021;1.2172;
946.8000;0.4103;1.2406;
947.1000;0.4111;1.2359;
947.4000;0.4078;1.2429;
947.7000;0.4094;1.2570;
948.0000;0.4078;1.2570;
948.3000;0.4078;1.2593;
948.6000;0.4070;1.2546;
948.9000;0.4086;1.2523;
949.2000;0.4054;1.2476;
949.5000;0.4070;1.2476;
949.8000;0.4078;1.2453;
950.1000;0.4111;1.2476;
950.4000;0.4078;1.2289;
950.7000;0.4078;1.2312;
951.0000;0.4094;1.2336;
951.3000;0.4103;1.2336;
951.6000;0.4094;1.2312;
951.9000;0.4078;1.2382;
952.2000;0.4078;1.2336;
952.5000;0.4070;1.2289;
952.8000;0.4103;1.2382;
953.1000;0.4078;1.2289;
953.4000;0.4046;1.2242;
953.7000;0.4086;1.2382;
954.0000;0.4078;1.2429;
954.3000;0.4160;1.2733;
954.6000;0.4078;1.2546;
954.9000;0.4062;1.2499;
955.2000;0.4078;1.2476;
955.5000;0.4021;1.2382;
955.8000;0.4070;1.2616;
956.1000;0.4086;1.2616;
956.4000;0.4086;1.2640;
956.7000;0.4094;1.2663;
957.0000;0.4054;1.2616;
957.3000;0.4070;1.2640;
957.6000;0.4086;1.2663;
957.9000;0.4078;1.2663;
958.2000;0.4078;1.2710;
958.5000;0.4037;1.2687;
958.8000;0.4070;1.2663;
959.1000;0.4094;1.2663;
959.4000;0.4062;1.2546;
959.7000;0.4062;1.2523;
960.0000;0.4062;1.2476;
960.3000;0.4094;1.2523;
960.6000;0.4070;1.2453;
960.9000;0.4062;1.2406;
961.2000;0.4151;1.2640;
961.5000;0.4078;1.2476;
961.8000;0.4070;1.2499;
962.1000;0.4119;1.2593;
962.4000;0.4062;1.2499;
962.7000;0.3997;1.2359;
963.0000;0.4103;1.2546;
963.3000;0.4062;1.2499;
963.6000;0.4037;1.2499;
963.9000;0.4062;1.2570;
964.2000;0.3964;1.2359;
964.5000;0.4070;1.2593;
964.8000;0.4070;1.2546;
965.1000;0.4070;1.2546;
965.4000;0.4054;1.2499;
965.7000;0.4070;1.2499;
966.0000;0.4078;1.2499;
966.3000;0.4062;1.2476;
966.6000;0.4103;1.2523;
966.9000;0.4094;1.2523;
967.2000;0.4062;1.2476;
967.5000;0.4062;1.2359;
967.8000;0.4070;1.2382;
968.1000;0.4070;1.2382;
968.4000;0.4086;1.2476;
968.7000;0.4062;1.2476;
969.0000;0.4054;1.2499;
969.3000;0.4062;1.2429;
969.6000;0.4062;1.2336;
969.9000;0.3989;1.2172;
970.2000;0.4062;1.2429;
970.5000;0.4046;1.2406;
970.8000;0.4054;1.2382;
971.1000;0.4078;1.2453;
971.4000;0.4078;1.2570;
971.7000;0.4070;1.2570;
972.0000;0.4078;1.2546;
972.3000;0.4078;1.2429;
972.6000;0.4070;1.2382;
972.9000;0.4070;1.2429;
973.2000;0.4070;1.2429;
973.5000;0.4046;1.2265;
973.8000;0.4037;1.2289;
974.1000;0.4078;1.2429;
974.4000;0.4070;1.2476;
974.7000;0.4086;1.2546;
975.0000;0.4094;1.2593;
975.3000;0.4086;1.2593;
975.6000;0.4054;1.2570;
975.9000;0.4070;1.2640;
976.2000;0.4119;1.2640;
976.5000;0.4070;1.2429;
976.8000;0.4086;1.2453;
977.1000;0.4062;1.2336;
977.4000;0.4054;1.2382;
977.7000;0.4062;1.2312;
978.0000;0.4062;1.2172;
978.3000;0.4062;1.2219;
978.6000;0.4070;1.2195;
978.9000;0.4086;1.2242;
979.2000;0.4086;1.2242;
979.5000;0.4054;1.2172;
979.8000;0.4094;1.2265;
980.1000;0.4062;1.2289;
980.4000;0.4070;1.2219;
980.7000;0.4070;1.2101;
981.0000;0.4094;1.2125;
981.3000;0.4078;1.2219;
981.6000;0.4225;1.2593;
981.9000;0.4111;1.2429;
982.2000;0.4111;1.2453;
982.5000;0.3989;1.2219;
982.8000;0.4062;1.2359;
983.1000;0.4029;1.2242;
983.4000;0.4062;1.2382;
983.7000;0.4070;1.2429;
984.0000;0.4062;1.2453;
984.3000;0.4054;1.2429;
984.6000;0.4046;1.2406;
984.9000;0.4070;1.2429;
985.2000;0.4021;1.2242;
985.5000;0.4086;1.2382;
985.8000;0.4062;1.2336;
986.1000;0.3980;1.2219;
986.4000;0.4078;1.2406;
986.7000;0.4054;1.2429;
987.0000;0.4046;1.2382;
987.3000;0.4062;1.2289;
987.6000;0.4062;1.2265;
987.9000;0.4013;1.2148;
988.2000;0.4070;1.2312;
988.5000;0.4070;1.2406;
988.8000;0.4062;1.2476;
989.1000;0.4062;1.2570;
989.4000;0.4070;1.2546;
989.7000;0.4062;1.2640;
990.0000;0.4046;1.2546;
990.3000;0.4070;1.2570;
990.6000;0.4070;1.2616;
990.9000;0.4054;1.2640;
991.2000;0.4078;1.2570;
991.5000;0.4013;1.2453;
991.8000;0.4070;1.2593;
992.1000;0.4054;1.2546;
992.4000;0.4070;1.2570;
992.7000;0.4070;1.2593;
993.0000;0.4062;1.2476;
993.3000;0.4037;1.2336;
993.6000;0.4062;1.2476;
993.9000;0.4078;1.2593;
994.2000;0.4054;1.2499;
994.5000;0.4054;1.2546;
994.8000;0.4070;1.2546;
995.1000;0.4070;1.2453;
995.4000;0.3997;1.2219;
995.7000;0.4078;1.2336;
996.0000;0.4037;1.2382;
996.3000;0.4062;1.2499;
996.6000;0.4070;1.2523;
996.9000;0.4062;1.2523;
997.2000;0.4062;1.2476;
997.5000;0.4070;1.2570;
997.8000;0.4054;1.2499;
998.1000;0.4062;1.2476;
998.4000;0.4070;1.2546;
998.7000;0.4046;1.2453;
999.0000;0.4037;1.2406;
999.3000;0.4151;1.2593;
999.6000;0.4062;1.2453;
999.9000;0.4094;1.2593;
1000.2000;0.4046;1.2499;
1000.5000;0.4062;1.2570;
1000.8000;0.4054;1.2523;
1001.1000;0.4086;1.2570;
1001.4000;0.4086;1.2499;
1001.7000;0.4062;1.2523;
1002.0000;0.4078;1.2663;
1002.3000;0.4062;1.2593;
1002.6000;0.4054;1.2593;
1002.9000;0.4078;1.2593;
1003.2000;0.4054;1.2499;
1003.5000;0.4054;1.2453;
1003.8000;0.4086;1.2499;
1004.1000;0.4046;1.2429;
1004.4000;0.4078;1.2570;
1004.7000;0.4062;1.2546;
1005.0000;0.4070;1.2640;
1005.3000;0.4062;1.2640;
1005.6000;0.4078;1.2757;
1005.9000;0.4070;1.2687;
1006.2000;0.4078;1.2733;
1006.5000;0.4046;1.2710;
1006.8000;0.4046;1.2780;
1007.1000;0.4086;1.2733;
1007.4000;0.4054;1.2593;
1007.7000;0.4013;1.2406;
1008.0000;0.4046;1.2476;
1008.3000;0.4054;1.2429;
1008.6000;0.4062;1.2523;
1008.9000;0.4037;1.2499;
1009.2000;0.4054;1.2546;
1009.5000;0.4062;1.2523;
1009.8000;0.4062;1.2570;
1010.1000;0.4070;1.2593;
1010.4000;0.4062;1.2570;
1010.7000;0.4119;1.2640;
1011.0000;0.4070;1.2593;
1011.3000;0.4070;1.2523;
1011.6000;0.4070;1.2499;
1011.9000;0.4062;1.2406;
1012.2000;0.4062;1.2359;
1012.5000;0.4062;1.2499;
1012.8000;0.4062;1.2523;
1013.1000;0.4070;1.2593;
1013.4000;0.4021;1.2429;
1013.7000;0.4094;1.2476;
1014.0000;0.4054;1.2359;
1014.3000;0.4046;1.2359;
1014.6000;0.4062;1.2382;
1014.9000;0.4054;1.2453;
1015.2000;0.4078;1.2453;
1015.5000;0.4062;1.2453;
1015.8000;0.4013;1.2312;
1016.1000;0.4029;1.2429;
1016.4000;0.4046;1.2476;
1016.7000;0.4062;1.2382;
1017.0000;0.4070;1.2429;
1017.3000;0.4078;1.2523;
1017.6000;0.4127;1.2640;
1017.9000;0.4176;1.2897;
1018.2000;0.4086;1.2710;
1018.5000;0.4021;1.2570;
1018.8000;0.4046;1.2710;
1019.1000;0.4054;1.2710;
1019.4000;0.4029;1.2663;
1019.7000;0.4046;1.2687;
1020.0000;0.4103;1.2780;
1020.3000;0.4070;1.2593;
1020.6000;0.4054;1.2359;
1020.9000;0.3989;1.2195;
1021.2000;0.4062;1.2312;
1021.5000;0.4046;1.2382;
1021.8000;0.4070;1.2523;
1022.1000;0.4013;1.2382;
1022.4000;0.4070;1.2616;
1022.7000;0.4021;1.2476;
1023.0000;0.4062;1.2616;
1023.3000;0.4046;1.2453;
1023.6000;0.4021;1.2382;
1023.9000;0.4086;1.2570;
1024.2000;0.4054;1.2546;
1024.5000;0.4046;1.2476;
1024.8000;0.4029;1.2406;
1025.1000;0.4111;1.2570;
1025.4000;0.4046;1.2499;
1025.7000;0.4070;1.2523;
1026.0000;0.4086;1.2499;
1026.3000;0.4054;1.2499;
1026.6000;0.4054;1.2570;
1026.9000;0.4029;1.2499;
1027.2000;0.4054;1.2546;
1027.5000;0.4054;1.2523;
1027.8000;0.4062;1.2593;
1028.1000;0.4046;1.2593;
1028.4000;0.4054;1.2663;
1028.7000;0.4046;1.2616;
1029.0000;0.4046;1.2593;
1029.3000;0.4054;1.2546;
1029.6000;0.4029;1.2476;
1029.9000;0.4046;1.2523;
1030.2000;0.4054;1.2499;
1030.5000;0.4070;1.2523;
1030.8000;0.4070;1.2429;
1031.1000;0.4037;1.2382;
1031.4000;0.4070;1.2453;
1031.7000;0.4054;1.2312;
1032.0000;0.4054;1.2312;
1032.3000;0.4054;1.2359;
1032.6000;0.4029;1.2336;
1032.9000;0.4037;1.2382;
1033.2000;0.4062;1.2523;
1033.5000;0.4054;1.2546;
1033.8000;0.4046;1.2570;
1034.1000;0.4054;1.2593;
1034.4000;0.4046;1.2593;
1034.7000;0.4070;1.2570;
1035.0000;0.4062;1.2570;
1035.3000;0.4046;1.2640;
1035.6000;0.4062;1.2663;
1035.9000;0.4046;1.2546;
1036.2000;0.4054;1.2640;
1036.5000;0.4037;1.2640;
1036.8000;0.4054;1.2663;
1037.1000;0.4046;1.2663;
1037.4000;0.4013;1.2570;
1037.7000;0.4070;1.2663;
1038.0000;0.4046;1.2663;
1038.3000;0.4054;1.2616;
1038.6000;0.4054;1.2546;
1038.9000;0.4111;1.2640;
1039.2000;0.4086;1.2616;
1039.5000;0.4054;1.2593;
1039.8000;0.4021;1.2406;
1040.1000;0.4062;1.2382;
1040.4000;0.4062;1.2382;
1040.7000;0.4013;1.2219;
1041.0000;0.4160;1.2640;
1041.3000;0.4062;1.2336;
1041.6000;0.4054;1.2382;
1041.9000;0.4021;1.2382;
1042.2000;0.4046;1.2359;
1042.5000;0.4029;1.2312;
1042.8000;0.4046;1.2382;
1043.1000;0.4062;1.2406;
1043.4000;0.4054;1.2406;
1043.7000;0.4029;1.2382;
1044.0000;0.4119;1.2570;
1044.3000;0.4037;1.2406;
1044.6000;0.4078;1.2453;
1044.9000;0.4046;1.2312;
1045.2000;0.4046;1.2289;
1045.5000;0.4046;1.2336;
1045.8000;0.4054;1.2382;
1046.1000;0.4119;1.2499;
1046.4000;0.4046;1.2265;
1046.7000;0.4046;1.2219;
1047.0000;0.4054;1.2359;
1047.3000;0.3989;1.2242;
1047.6000;0.4054;1.2453;
1047.9000;0.4054;1.2406;
1048.2000;0.4094;1.2476;
1048.5000;0.4046;1.2336;
1048.8000;0.4037;1.2265;
1049.1000;0.4054;1.2242;
1049.4000;0.4046;1.2219;
1049.7000;0.4054;1.2265;
1050.0000;0.4078;1.2312;
1050.3000;0.4111;1.2359;
1050.6000;0.4062;1.2242;
1050.9000;0.4054;1.2289;
1051.2000;0.4054;1.2265;
1051.5000;0.4086;1.2359;
1051.8000;0.4046;1.2382;
1052.1000;0.4062;1.2476;
1052.4000;0.4046;1.2382;
1052.7000;0.4054;1.2312;
1053.0000;0.4054;1.2289;
1053.3000;0.4046;1.2195;
1053.6000;0.4021;1.2101;
1053.9000;0.4062;1.2219;
1054.2000;0.4037;1.2195;
1054.5000;0.4062;1.2289;
1054.8000;0.4062;1.2242;
1055.1000;0.4054;1.2219;
1055.4000;0.4062;1.2312;
1055.7000;0.4046;1.2382;
1056.0000;0.4054;1.2523;
1056.3000;0.4062;1.2499;
1056.6000;0.4062;1.2453;
1056.9000;0.4078;1.2546;
1057.2000;0.4054;1.2429;
1057.5000;0.4054;1.2359;
1057.8000;0.4062;1.2359;
1058.1000;0.4037;1.2382;
1058.4000;0.4029;1.2382;
1058.7000;0.4037;1.2359;
1059.0000;0.4062;1.2312;
1059.3000;0.4054;1.2359;
1059.6000;0.4062;1.2312;
1059.9000;0.4037;1.2242;
1060.2000;0.4062;1.2312;
1060.5000;0.4062;1.2265;
1060.8000;0.4046;1.2265;
1061.1000;0.4054;1.2312;
1061.4000;0.4037;1.2195;
1061.7000;0.4070;1.2219;
1062.0000;0.4062;1.2289;
1062.3000;0.4013;1.2148;
1062.6000;0.4046;1.2336;
1062.9000;0.4046;1.2289;
1063.2000;0.4037;1.2265;
1063.5000;0.4029;1.2265;
1063.8000;0.4029;1.2312;
1064.1000;0.4037;1.2406;
1064.4000;0.4021;1.2429;
1064.7000;0.4070;1.2499;
1065.0000;0.4062;1.2499;
1065.3000;0.3980;1.2195;
1065.6000;0.4029;1.2265;
1065.9000;0.4029;1.2406;
1066.2000;0.4054;1.2336;
1066.5000;0.4094;1.2289;
1066.8000;0.4046;1.2172;
1067.1000;0.4037;1.2195;
1067.4000;0.4054;1.2172;
1067.7000;0.4046;1.2172;
1068.0000;0.4054;1.2148;
1068.3000;0.4013;1.2101;
1068.6000;0.4054;1.2195;
1068.9000;0.4086;1.2219;
1069.2000;0.4046;1.2148;
1069.5000;0.4054;1.2125;
1069.8000;0.4046;1.2125;
1070.1000;0.4037;1.2125;
1070.4000;0.4029;1.2078;
1070.7000;0.4078;1.2078;
1071.0000;0.4037;1.2031;
1071.3000;0.4054;1.2125;
1071.6000;0.4037;1.2148;
1071.9000;0.4037;1.2101;
1072.2000;0.4037;1.2101;
1072.5000;0.4029;1.2031;
1072.8000;0.4021;1.1961;
1073.1000;0.4046;1.2101;
1073.4000;0.4046;1.2101;
1073.7000;0.4070;1.2195;
1074.0000;0.4062;1.2242;
1074.3000;0.4054;1.2382;
1074.6000;0.4054;1.2499;
1074.9000;0.4046;1.2570;
1075.2000;0.4029;1.2546;
1075.5000;0.4054;1.2593;
1075.8000;0.4046;1.2499;
1076.1000;0.4135;1.2663;
1076.4000;0.4062;1.2382;
1076.7000;0.4078;1.2429;
1077.0000;0.4062;1.2359;
1077.3000;0.4029;1.2289;
1077.6000;0.3997;1.2172;
1077.9000;0.4054;1.2336;
1078.2000;0.4062;1.2429;
1078.5000;0.4037;1.2336;
1078.8000;0.4111;1.2546;
1079.1000;0.4119;1.2570;
1079.4000;0.4037;1.2382;
1079.7000;0.4037;1.2406;
1080.0000;0.4013;1.2289;
1080.3000;0.4037;1.2242;
1080.6000;0.4037;1.2289;
1080.9000;0.4037;1.2289;
1081.2000;0.4029;1.2219;
1081.5000;0.4021;1.2195;
1081.8000;0.4037;1.2195;
1082.1000;0.4054;1.2219;
1082.4000;0.4054;1.2312;
1082.7000;0.4046;1.2382;
1083.0000;0.4062;1.2382;
1083.3000;0.4070;1.2406;
1083.6000;0.4119;1.2523;
1083.9000;0.4062;1.2382;
1084.2000;0.4070;1.2429;
1084.5000;0.4062;1.2476;
1084.8000;0.4086;1.2523;
1085.1000;0.4062;1.2429;
1085.4000;0.4062;1.2429;
1085.7000;0.4054;1.2359;
1086.0000;0.4070;1.2406;
1086.3000;0.4046;1.2336;
1086.6000;0.4062;1.2359;
1086.9000;0.3932;1.2101;
1087.2000;0.4046;1.2382;
1087.5000;0.4054;1.2312;
1087.8000;0.4111;1.2429;
1088.1000;0.4070;1.2359;
1088.4000;0.4054;1.2312;
1088.7000;0.4037;1.2195;
1089.0000;0.4046;1.2312;
1089.3000;0.4054;1.2289;
1089.6000;0.4046;1.2289;
1089.9000;0.4046;1.2312;
1090.2000;0.4070;1.2359;
1090.5000;0.4054;1.2359;
1090.8000;0.4046;1.2382;
1091.1000;0.4021;1.2406;
1091.4000;0.4046;1.2453;
1091.7000;0.4046;1.2476;
1092.0000;0.4037;1.2382;
1092.3000;0.4062;1.2265;
1092.6000;0.4054;1.2336;
1092.9000;0.4086;1.2359;
1093.2000;0.4070;1.2265;
1093.5000;0.4070;1.2265;
1093.8000;0.4046;1.2265;
1094.1000;0.4062;1.2429;
1094.4000;0.4037;1.2382;
1094.7000;0.4046;1.2406;
1095.0000;0.4070;1.2382;
1095.3000;0.4037;1.2242;
1095.6000;0.4062;1.2289;
1095.9000;0.3980;1.2195;
1096.2000;0.4119;1.2429;
1096.5000;0.4054;1.2359;
1096.8000;0.4062;1.2359;
1097.1000;0.4046;1.2382;
1097.4000;0.4037;1.2265;
1097.7000;0.4054;1.2242;
1098.0000;0.4070;1.2265;
1098.3000;0.4054;1.2148;
1098.6000;0.4046;1.2101;
1098.9000;0.4046;1.2078;
1099.2000;0.4005;1.2031;
1099.5000;0.4062;1.2359;
1099.8000;0.4054;1.2406;
1100.1000;0.4046;1.2453;
1100.4000;0.4046;1.2429;
1100.7000;0.4046;1.2453;
1101.0000;0.4070;1.2429;
1101.3000;0.4054;1.2382;
1101.6000;0.4078;1.2453;
1101.9000;0.4046;1.2499;
1102.2000;0.3997;1.2359;
1102.5000;0.4029;1.2312;
1102.8000;0.4037;1.2336;
1103.1000;0.4070;1.2406;
1103.4000;0.4054;1.2289;
1103.7000;0.4029;1.2289;
1104.0000;0.4029;1.2242;
1104.3000;0.4029;1.2242;
1104.6000;0.4062;1.2289;
1104.9000;0.4046;1.2242;
1105.2000;0.4054;1.2195;
1105.5000;0.4062;1.2359;
1105.8000;0.4021;1.2289;
1106.1000;0.4046;1.2429;
1106.4000;0.4029;1.2382;
1106.7000;0.4046;1.2359;
1107.0000;0.4046;1.2265;
1107.3000;0.4062;1.2382;
1107.6000;0.4062;1.2312;
1107.9000;0.4054;1.2336;
1108.2000;0.4046;1.2336;
1108.5000;0.4029;1.2406;
1108.8000;0.4054;1.2406;
1109.1000;0.4021;1.2312;
1109.4000;0.4054;1.2382;
1109.7000;0.3980;1.2172;
1110.0000;0.4037;1.2242;
1110.3000;0.4054;1.2148;
1110.6000;0.4062;1.2195;
1110.9000;0.4062;1.2289;
1111.2000;0.4046;1.2219;
1111.5000;0.4062;1.2148;
1111.8000;0.4046;1.2055;
1112.1000;0.4070;1.2101;
1112.4000;0.4054;1.2148;
1112.7000;0.4046;1.2125;
1113.0000;0.4062;1.2148;
1113.3000;0.4054;1.2125;
1113.6000;0.4046;1.2195;
1113.9000;0.4054;1.2172;
1114.2000;0.4037;1.2055;
1114.5000;0.4046;1.1984;
1114.8000;0.4054;1.2008;
1115.1000;0.3964;1.1774;
1115.4000;0.4037;1.2008;
1115.7000;0.4054;1.2031;
1116.0000;0.4054;1.2008;
1116.3000;0.4054;1.2008;
1116.6000;0.4029;1.2008;
1116.9000;0.4029;1.1961;
1117.2000;0.4054;1.2031;
1117.5000;0.4054;1.2101;
1117.8000;0.4062;1.2219;
1118.1000;0.3964;1.1938;
1118.4000;0.4046;1.2101;
1118.7000;0.4037;1.2148;
1119.0000;0.4127;1.2312;
1119.3000;0.4046;1.2125;
1119.6000;0.4054;1.2195;
1119.9000;0.4062;1.2219;
1120.2000;0.4029;1.2125;
1120.5000;0.4046;1.2148;
1120.8000;0.4021;1.2125;
1121.1000;0.4054;1.2265;
1121.4000;0.4054;1.2242;
1121.7000;0.4046;1.2219;
1122.0000;0.4029;1.2242;
1122.3000;0.4046;1.2336;
1122.6000;0.4037;1.2289;
1122.9000;0.4062;1.2382;
1123.2000;0.4037;1.2242;
1123.5000;0.4062;1.2242;
1123.8000;0.4046;1.2359;
1124.1000;0.4054;1.2382;
1124.4000;0.4046;1.2382;
1124.7000;0.4029;1.2195;
1125.0000;0.4046;1.2265;
1125.3000;0.4037;1.2312;
1125.6000;0.4013;1.2312;
1125.9000;0.4070;1.2476;
1126.2000;0.4070;1.2523;
1126.5000;0.4037;1.2546;
1126.8000;0.4029;1.2499;
1127.1000;0.4037;1.2476;
1127.4000;0.4046;1.2406;
1127.7000;0.4037;1.2476;
1128.0000;0.4037;1.2382;
1128.3000;0.4046;1.2429;
1128.6000;0.4046;1.2359;
1128.9000;0.4046;1.2406;
1129.2000;0.4046;1.2359;
1129.5000;0.4037;1.2336;
1129.8000;0.4062;1.2429;
1130.1000;0.4037;1.2429;
1130.4000;0.4029;1.2336;
1130.7000;0.4029;1.2148;
1131.0000;0.4046;1.2219;
1131.3000;0.4062;1.2289;
1131.6000;0.4062;1.2289;
1131.9000;0.4029;1.2242;
1132.2000;0.4037;1.2359;
1132.5000;0.4070;1.2429;
1132.8000;0.4029;1.2312;
1133.1000;0.4037;1.2289;
1133.4000;0.4078;1.2359;
1133.7000;0.4046;1.2312;
1134.0000;0.4078;1.2336;
1134.3000;0.4021;1.2265;
1134.6000;0.4037;1.2289;
1134.9000;0.4037;1.2219;
1135.2000;0.4037;1.2289;
1135.5000;0.4070;1.2382;
1135.8000;0.4037;1.2336;
1136.1000;0.4037;1.2382;
1136.4000;0.4046;1.2336;
1136.7000;0.4037;1.2219;
1137.0000;0.4037;1.2148;
1137.3000;0.4037;1.2172;
1137.6000;0.4046;1.2078;
1137.9000;0.4054;1.2125;
1138.2000;0.4029;1.2148;
1138.5000;0.4078;1.2242;
1138.8000;0.4062;1.2172;
1139.1000;0.3972;1.1867;
1139.4000;0.4046;1.2031;
1139.7000;0.4037;1.1938;
1140.0000;0.4054;1.2008;
1140.3000;0.4054;1.2031;
1140.6000;0.4070;1.2078;
1140.9000;0.4054;1.1961;
1141.2000;0.4046;1.2055;
1141.5000;0.4054;1.2219;
1141.8000;0.4054;1.2406;
1142.1000;0.4062;1.2523;
1142.4000;0.4054;1.2359;
1142.7000;0.4086;1.2429;
1143.0000;0.4054;1.2406;
1143.3000;0.4046;1.2312;
1143.6000;0.4046;1.2265;
1143.9000;0.4029;1.2219;
1144.2000;0.4046;1.2195;
1144.5000;0.4054;1.2265;
1144.8000;0.4094;1.2453;
1145.1000;0.4037;1.2359;
1145.4000;0.4062;1.2429;
1145.7000;0.4037;1.2406;
1146.0000;0.4029;1.2336;
1146.3000;0.4021;1.2312;
1146.6000;0.4037;1.2359;
1146.9000;0.4046;1.2289;
1147.2000;0.4029;1.2219;
1147.5000;0.4029;1.2195;
1147.8000;0.4021;1.2195;
1148.1000;0.4054;1.2219;
1148.4000;0.4070;1.2219;
1148.7000;0.4029;1.2219;
1149.0000;0.4054;1.2242;
1149.3000;0.4062;1.2312;
1149.6000;0.4054;1.2265;
1149.9000;0.4029;1.2312;
1150.2000;0.3956;1.2055;
1150.5000;0.4046;1.2312;
1150.8000;0.4054;1.2429;
1151.1000;0.4021;1.2429;
1151.4000;0.4054;1.2406;
1151.7000;0.3948;1.2195;
1152.0000;0.4054;1.2453;
1152.3000;0.4062;1.2359;
1152.6000;0.4037;1.2265;
1152.9000;0.4094;1.2312;
1153.2000;0.4054;1.2148;
1153.5000;0.4046;1.2289;
1153.8000;0.4029;1.2312;
1154.1000;0.4054;1.2312;
1154.4000;0.4070;1.2406;
1154.7000;0.4029;1.2312;
1155.0000;0.4005;1.2195;
1155.3000;0.4029;1.2148;
1155.6000;0.4062;1.2148;
1155.9000;0.4021;1.2031;
1156.2000;0.4046;1.2078;
1156.5000;0.3956;1.1891;
1156.8000;0.4111;1.2195;
1157.1000;0.4054;1.2125;
1157.4000;0.4029;1.2101;
1157.7000;0.4046;1.2219;
1158.0000;0.4054;1.2219;
1158.3000;0.4037;1.2148;
1158.6000;0.4029;1.2172;
1158.9000;0.4037;1.2172;
1159.2000;0.4046;1.2195;
1159.5000;0.4054;1.2336;
1159.8000;0.4005;1.2265;
1160.1000;0.4046;1.2265;
1160.4000;0.4054;1.2242;
1160.7000;0.4054;1.2359;
1161.0000;0.4054;1.2453;
1161.3000;0.4046;1.2570;
1161.6000;0.4029;1.2523;
1161.9000;0.4111;1.2616;
1162.2000;0.4054;1.2429;
1162.5000;0.3956;1.2148;
1162.8000;0.4029;1.2359;
1163.1000;0.4046;1.2359;
1163.4000;0.4054;1.2359;
1163.7000;0.4037;1.2289;
1164.0000;0.4037;1.2289;
1164.3000;0.4005;1.2219;
1164.6000;0.4046;1.2289;
1164.9000;0.4046;1.2242;
1165.2000;0.4062;1.2265;
1165.5000;0.4046;1.2265;
1165.8000;0.4021;1.2242;
1166.1000;0.4103;1.2453;
1166.4000;0.4029;1.2312;
1166.7000;0.4021;1.2172;
1167.0000;0.4054;1.2242;
1167.3000;0.4046;1.2219;
1167.6000;0.4037;1.2265;
1167.9000;0.4062;1.2312;
1168.2000;0.4029;1.2195;
1168.5000;0.4062;1.2172;
1168.8000;0.4046;1.2101;
1169.1000;0.4037;1.2125;
1169.4000;0.4046;1.2219;
1169.7000;0.4078;1.2289;
1170.0000;0.4037;1.2195;
1170.3000;0.4094;1.2265;
1170.6000;0.4029;1.2008;
1170.9000;0.4046;1.2078;
1171.2000;0.4037;1.2078;
1171.5000;0.4029;1.2055;
1171.8000;0.4078;1.2101;
1172.1000;0.4046;1.2101;
1172.4000;0.4037;1.2148;
1172.7000;0.4054;1.2242;
1173.0000;0.4029;1.2172;
1173.3000;0.4037;1.2172;
1173.6000;0.4070;1.2312;
1173.9000;0.4029;1.2125;
1174.2000;0.4037;1.2078;
1174.5000;0.4029;1.2101;
1174.8000;0.4054;1.2219;
1175.1000;0.4037;1.2219;
1175.4000;0.4013;1.2148;
1175.7000;0.4046;1.2101;
1176.0000;0.4070;1.2172;
1176.3000;0.4054;1.2172;
1176.6000;0.4013;1.2148;
1176.9000;0.4029;1.2195;
1177.2000;0.4062;1.2336;
1177.5000;0.4029;1.2312;
1177.8000;0.4078;1.2429;
1178.1000;0.4037;1.2406;
1178.4000;0.4151;1.2663;
1178.7000;0.4037;1.2382;
1179.0000;0.4062;1.2499;
1179.3000;0.4054;1.2406;
1179.6000;0.4046;1.2312;
1179.9000;0.3980;1.2172;
1180.2000;0.4127;1.2593;
1180.5000;0.4013;1.2359;
1180.8000;0.4070;1.2546;
1181.1000;0.4046;1.2546;
1181.4000;0.4021;1.2546;
1181.7000;0.4037;1.2476;
1182.0000;0.4046;1.2453;
1182.3000;0.4037;1.2453;
1182.6000;0.4054;1.2429;
1182.9000;0.4029;1.2453;
1183.2000;0.4078;1.2593;
1183.5000;0.4046;1.2499;
1183.8000;0.4005;1.2382;
1184.1000;0.4135;1.2640;
1184.4000;0.4029;1.2382;
1184.7000;0.4046;1.2382;
1185.0000;0.4046;1.2382;
1185.3000;0.4021;1.2359;
1185.6000;0.4037;1.2429;
1185.9000;0.4054;1.2499;
1186.2000;0.3972;1.2382;
1186.5000;0.4037;1.2453;
1186.8000;0.4021;1.2382;
1187.1000;0.4054;1.2429;
1187.4000;0.4062;1.2429;
1187.7000;0.4013;1.2382;
1188.0000;0.4046;1.2523;
1188.3000;0.4021;1.2499;
1188.6000;0.4013;1.2570;
1188.9000;0.4029;1.2687;
1189.2000;0.4029;1.2710;
1189.5000;0.4005;1.2570;
1189.8000;0.4037;1.2570;
1190.1000;0.4037;1.2523;
1190.4000;0.4046;1.2570;
1190.7000;0.4054;1.2546;
1191.0000;0.4037;1.2570;
1191.3000;0.4037;1.2640;
1191.6000;0.4021;1.2663;
1191.9000;0.4029;1.2593;
1192.2000;0.4037;1.2663;
1192.5000;0.4013;1.2546;
1192.8000;0.4054;1.2593;
1193.1000;0.4021;1.2523;
1193.4000;0.4005;1.2499;
1193.7000;0.4029;1.2570;
1194.0000;0.4046;1.2616;
1194.3000;0.4037;1.2663;
1194.6000;0.4111;1.2804;
1194.9000;0.4062;1.2733;
1195.2000;0.4037;1.2616;
1195.5000;0.4037;1.2570;
1195.8000;0.4021;1.2499;
1196.1000;0.4021;1.2499;
1196.4000;0.4046;1.2499;
1196.7000;0.4054;1.2523;
1197.0000;0.4054;1.2429;
1197.3000;0.4046;1.2429;
1197.6000;0.4046;1.2429;
1197.9000;0.4046;1.2476;
1198.2000;0.4037;1.2570;
1198.5000;0.4046;1.2616;
1198.8000;0.4062;1.2593;
1199.1000;0.4062;1.2499;
1199.4000;0.4029;1.2429;
1199.7000;0.4021;1.2406;
1200.0000;0.4054;1.2429;
1200.3000;0.4046;1.2429;
1200.6000;0.4070;1.2523;
1200.9000;0.4160;1.2804;
1201.2000;0.4037;1.2476;
1201.5000;0.4094;1.2687;
1201.8000;0.4037;1.2499;
1202.1000;0.4046;1.2593;
1202.4000;0.4037;1.2570;
1202.7000;0.4054;1.2523;
1203.0000;0.4046;1.2499;
1203.3000;0.4046;1.2523;
1203.6000;0.4029;1.2359;
1203.9000;0.4037;1.2219;
1204.2000;0.4037;1.2242;
1204.5000;0.4062;1.2359;
1204.8000;0.4037;1.2359;
1205.1000;0.4046;1.2382;
1205.4000;0.4037;1.2382;
1205.7000;0.4078;1.2476;
1206.0000;0.4029;1.2453;
1206.3000;0.4013;1.2453;
1206.6000;0.4021;1.2546;
1206.9000;0.4054;1.2640;
1207.2000;0.4046;1.2640;
1207.5000;0.4037;1.2593;
1207.8000;0.4062;1.2616;
1208.1000;0.4046;1.2546;
1208.4000;0.4037;1.2570;
1208.7000;0.4078;1.2687;
1209.0000;0.4054;1.2616;
1209.3000;0.4054;1.2687;
1209.6000;0.4029;1.2710;
1209.9000;0.4029;1.2780;
1210.2000;0.4037;1.2804;
1210.5000;0.4046;1.2851;
1210.8000;0.4037;1.2851;
1211.1000;0.3923;1.2523;
1211.4000;0.4029;1.2733;
1211.7000;0.4037;1.2733;
1212.0000;0.4111;1.2968;
1212.3000;0.4005;1.2616;
1212.6000;0.4037;1.2757;
1212.9000;0.4037;1.2710;
1213.2000;0.4037;1.2710;
1213.5000;0.4029;1.2733;
1213.8000;0.4046;1.2757;
1214.1000;0.4037;1.2733;
1214.4000;0.4021;1.2640;
1214.7000;0.4005;1.2499;
1215.0000;0.4037;1.2523;
1215.3000;0.4046;1.2546;
1215.6000;0.4094;1.2640;
1215.9000;0.4037;1.2523;
1216.2000;0.4037;1.2523;
1216.5000;0.4046;1.2453;
1216.8000;0.4078;1.2499;
1217.1000;0.4070;1.2523;
1217.4000;0.4046;1.2523;
1217.7000;0.4005;1.2429;
1218.0000;0.4037;1.2453;
1218.3000;0.4046;1.2570;
1218.6000;0.4037;1.2570;
1218.9000;0.4103;1.2570;
1219.2000;0.4054;1.2382;
1219.5000;0.4070;1.2453;
1219.8000;0.4103;1.2593;
1220.1000;0.4029;1.2499;
1220.4000;0.4029;1.2453;
1220.7000;0.4029;1.2406;
1221.0000;0.4037;1.2546;
1221.3000;0.4037;1.2616;
1221.6000;0.4029;1.2616;
1221.9000;0.4062;1.2663;
1222.2000;0.4029;1.2616;
1222.5000;0.4054;1.2546;
1222.8000;0.4054;1.2570;
1223.1000;0.4054;1.2523;
1223.4000;0.4054;1.2546;
1223.7000;0.4054;1.2593;
1224.0000;0.4054;1.2499;
1224.3000;0.4037;1.2593;
1224.6000;0.4054;1.2663;
1224.9000;0.4078;1.2687;
1225.2000;0.4029;1.2570;
1225.5000;0.3964;1.2406;
1225.8000;0.4037;1.2593;
1226.1000;0.4062;1.2687;
1226.4000;0.4029;1.2546;
1226.7000;0.4037;1.2616;
1227.0000;0.3997;1.2453;
1227.3000;0.4037;1.2499;
1227.6000;0.4046;1.2593;
1227.9000;0.4054;1.2663;
1228.2000;0.4046;1.2640;
1228.5000;0.4054;1.2570;
1228.8000;0.4046;1.2546;
1229.1000;0.4029;1.2523;
1229.4000;0.4062;1.2570;
1229.7000;0.4046;1.2593;
1230.0000;0.4021;1.2499;
1230.3000;0.4029;1.2570;
1230.6000;0.4046;1.2546;
1230.9000;0.4078;1.2710;
1231.2000;0.4046;1.2640;
1231.5000;0.4005;1.2546;
1231.8000;0.4013;1.2476;
1232.1000;0.4046;1.2523;
1232.4000;0.4037;1.2593;
1232.7000;0.4037;1.2593;
1233.0000;0.4046;1.2570;
1233.3000;0.4062;1.2570;
1233.6000;0.4037;1.2523;
1233.9000;0.4021;1.2523;
1234.2000;0.4013;1.2429;
1234.5000;0.4037;1.2453;
1234.8000;0.4046;1.2499;
1235.1000;0.4054;1.2476;
1235.4000;0.4029;1.2312;
1235.7000;0.4046;1.2289;
1236.0000;0.4086;1.2359;
1236.3000;0.4070;1.2382;
1236.6000;0.4029;1.2336;
1236.9000;0.4037;1.2359;
1237.2000;0.4054;1.2406;
1237.5000;0.4046;1.2382;
1237.8000;0.4037;1.2359;
1238.1000;0.4029;1.2382;
1238.4000;0.4070;1.2499;
1238.7000;0.4062;1.2523;
1239.0000;0.4046;1.2429;
1239.3000;0.4054;1.2429;
1239.6000;0.4037;1.2406;
1239.9000;0.4046;1.2406;
1240.2000;0.4054;1.2382;
1240.5000;0.4037;1.2312;
1240.8000;0.4037;1.2289;
1241.1000;0.4046;1.2312;
1241.4000;0.4046;1.2312;
1241.7000;0.4037;1.2359;
1242.0000;0.4054;1.2336;
1242.3000;0.4054;1.2359;
1242.6000;0.4062;1.2359;
1242.9000;0.3972;1.2195;
1243.2000;0.4054;1.2476;
1243.5000;0.4054;1.2523;
1243.8000;0.3997;1.2336;
1244.1000;0.4070;1.2476;
1244.4000;0.4046;1.2429;
1244.7000;0.4046;1.2523;
1245.0000;0.4021;1.2476;
1245.3000;0.4029;1.2453;
1245.6000;0.4046;1.2429;
1245.9000;0.4021;1.2406;
1246.2000;0.4086;1.2663;
1246.5000;0.4054;1.2523;
1246.8000;0.4029;1.2546;
1247.1000;0.4054;1.2616;
1247.4000;0.4046;1.2593;
1247.7000;0.4046;1.2593;
1248.0000;0.4046;1.2570;
1248.3000;0.4013;1.2523;
1248.6000;0.4103;1.2780;
1248.9000;0.4046;1.2640;
1249.2000;0.4078;1.2687;
1249.5000;0.4070;1.2663;
1249.8000;0.4029;1.2687;
1250.1000;0.4054;1.2733;
1250.4000;0.3980;1.2499;
1250.7000;0.4005;1.2523;
1251.0000;0.4021;1.2546;
1251.3000;0.4054;1.2616;
1251.6000;0.4029;1.2499;
1251.9000;0.4037;1.2616;
1252.2000;0.4005;1.2523;
1252.5000;0.4021;1.2593;
1252.8000;0.4021;1.2733;
1253.1000;0.4037;1.2757;
1253.4000;0.4029;1.2663;
1253.7000;0.4046;1.2663;
1254.0000;0.4005;1.2593;
1254.3000;0.4029;1.2523;
1254.6000;0.4037;1.2523;
1254.9000;0.4029;1.2546;
1255.2000;0.4046;1.2616;
1255.5000;0.4046;1.2570;
1255.8000;0.4062;1.2663;
1256.1000;0.4046;1.2570;
1256.4000;0.4046;1.2570;
1256.7000;0.4054;1.2546;
1257.0000;0.4054;1.2593;
1257.3000;0.4029;1.2570;
1257.6000;0.4070;1.2640;
1257.9000;0.4037;1.2523;
1258.2000;0.4094;1.2616;
1258.5000;0.4029;1.2499;
1258.8000;0.4021;1.2570;
1259.1000;0.4062;1.2570;
1259.4000;0.4029;1.2476;
1259.7000;0.4037;1.2499;
1260.0000;0.4029;1.2453;
1260.3000;0.4037;1.2476;
1260.6000;0.4021;1.2523;
1260.9000;0.4062;1.2499;
1261.2000;0.4046;1.2453;
1261.5000;0.4037;1.2499;
1261.8000;0.4029;1.2570;
1262.1000;0.4046;1.2593;
1262.4000;0.4037;1.2663;
1262.7000;0.4021;1.2593;
1263.0000;0.4046;1.2640;
1263.3000;0.4013;1.2570;
1263.6000;0.4029;1.2546;
1263.9000;0.4111;1.2780;
1264.2000;0.4037;1.2616;
1264.5000;0.4046;1.2546;
1264.8000;0.4013;1.2476;
1265.1000;0.4037;1.2546;
1265.4000;0.4037;1.2453;
1265.7000;0.4013;1.2406;
1266.0000;0.4029;1.2453;
1266.3000;0.4021;1.2616;
1266.6000;0.4037;1.2687;
1266.9000;0.4029;1.2663;
1267.2000;0.4054;1.2663;
1267.5000;0.4029;1.2640;
1267.8000;0.4005;1.2523;
1268.1000;0.4054;1.2687;
1268.4000;0.4029;1.2640;
1268.7000;0.4029;1.2546;
1269.0000;0.4021;1.2499;
1269.3000;0.4021;1.2359;
1269.6000;0.4029;1.2406;
1269.9000;0.4046;1.2499;
1270.2000;0.4037;1.2570;
1270.5000;0.4103;1.2757;
1270.8000;0.4054;1.2733;
1271.1000;0.4021;1.2663;
1271.4000;0.4029;1.2640;
1271.7000;0.4054;1.2663;
1272.0000;0.4029;1.2523;
1272.3000;0.4029;1.2570;
1272.6000;0.3980;1.2499;
1272.9000;0.4013;1.2593;
1273.2000;0.4046;1.2616;
1273.5000;0.4046;1.2593;
1273.8000;0.3923;1.2289;
1274.1000;0.4046;1.2593;
1274.4000;0.4037;1.2499;
1274.7000;0.3997;1.2429;
1275.0000;0.4021;1.2476;
1275.3000;0.4054;1.2616;
1275.6000;0.4062;1.2687;
1275.9000;0.4029;1.2570;
1276.2000;0.3948;1.2359;
1276.5000;0.4037;1.2523;
1276.8000;0.4054;1.2523;
1277.1000;0.4029;1.2546;
1277.4000;0.4021;1.2476;
1277.7000;0.4005;1.2499;
1278.0000;0.4029;1.2546;
1278.3000;0.4037;1.2710;
1278.6000;0.3972;1.2640;
1278.9000;0.4029;1.2663;
1279.2000;0.4037;1.2640;
1279.5000;0.4037;1.2616;
1279.8000;0.4029;1.2640;
1280.1000;0.4046;1.2687;
1280.4000;0.4054;1.2593;
1280.7000;0.4046;1.2640;
1281.0000;0.4046;1.2687;
1281.3000;0.4037;1.2640;
1281.6000;0.4013;1.2593;
1281.9000;0.4046;1.2570;
1282.2000;0.4037;1.2570;
1282.5000;0.4021;1.2570;
1282.8000;0.4029;1.2663;
1283.1000;0.4029;1.2757;
1283.4000;0.4054;1.2827;
1283.7000;0.4029;1.2804;
1284.0000;0.4029;1.2804;
1284.3000;0.4029;1.2851;
1284.6000;0.4054;1.2733;
1284.9000;0.4046;1.2663;
1285.2000;0.4013;1.2523;
1285.5000;0.4029;1.2453;
1285.8000;0.4054;1.2476;
1286.1000;0.4054;1.2570;
1286.4000;0.4046;1.2429;
1286.7000;0.4086;1.2546;
1287.0000;0.4005;1.2453;
1287.3000;0.4037;1.2523;
1287.6000;0.4029;1.2523;
1287.9000;0.4013;1.2453;
1288.2000;0.4021;1.2476;
1288.5000;0.4046;1.2593;
1288.8000;0.4046;1.2546;
1289.1000;0.4029;1.2570;
1289.4000;0.4037;1.2570;
1289.7000;0.4037;1.2570;
1290.0000;0.4029;1.2570;
1290.3000;0.4037;1.2570;
1290.6000;0.4078;1.2687;
1290.9000;0.4062;1.2687;
1291.2000;0.4054;1.2733;
1291.5000;0.4054;1.2733;
1291.8000;0.4037;1.2710;
1292.1000;0.4046;1.2710;
1292.4000;0.4021;1.2640;
1292.7000;0.4037;1.2570;
1293.0000;0.4021;1.2476;
1293.3000;0.4046;1.2523;
1293.6000;0.4029;1.2476;
1293.9000;0.4037;1.2570;
1294.2000;0.4062;1.2663;
1294.5000;0.4037;1.2663;
1294.8000;0.4037;1.2593;
1295.1000;0.4086;1.2663;
1295.4000;0.4037;1.2570;
1295.7000;0.4046;1.2546;
1296.0000;0.4013;1.2476;
1296.3000;0.4037;1.2593;
1296.6000;0.4046;1.2593;
1296.9000;0.4054;1.2593;
1297.2000;0.4037;1.2640;
1297.5000;0.4086;1.2733;
1297.8000;0.4021;1.2593;
1298.1000;0.4029;1.2663;
1298.4000;0.4054;1.2640;
1298.7000;0.4029;1.2616;
1299.0000;0.4037;1.2616;
1299.3000;0.4029;1.2663;
1299.6000;0.4062;1.2640;
1299.9000;0.4054;1.2640;
1300.2000;0.4046;1.2687;
1300.5000;0.4046;1.2640;
1300.8000;0.4029;1.2640;
1301.1000;0.4046;1.2663;
1301.4000;0.4094;1.2733;
1301.7000;0.4029;1.2476;
1302.0000;0.3964;1.2312;
1302.3000;0.4029;1.2546;
1302.6000;0.4037;1.2523;
1302.9000;0.3980;1.2382;
1303.2000;0.4029;1.2546;
1303.5000;0.4021;1.2499;
1303.8000;0.4021;1.2476;
1304.1000;0.4005;1.2523;
1304.4000;0.4013;1.2546;
1304.7000;0.4029;1.2593;
1305.0000;0.4054;1.2663;
1305.3000;0.4127;1.2827;
1305.6000;0.4037;1.2687;
1305.9000;0.4054;1.2733;
1306.2000;0.4062;1.2733;
1306.5000;0.4062;1.2733;
1306.8000;0.4037;1.2710;
1307.1000;0.4029;1.2640;
1307.4000;0.4054;1.2570;
1307.7000;0.3972;1.2406;
1308.0000;0.4029;1.2499;
1308.3000;0.4029;1.2429;
1308.6000;0.4037;1.2429;
1308.9000;0.4046;1.2476;
1309.2000;0.4046;1.2499;
1309.5000;0.4029;1.2406;
1309.8000;0.4029;1.2406;
1310.1000;0.4054;1.2406;
1310.4000;0.4037;1.2242;
1310.7000;0.4037;1.2242;
1311.0000;0.4021;1.2172;
1311.3000;0.4046;1.2195;
1311.6000;0.4029;1.2219;
1311.9000;0.4046;1.2359;
1312.2000;0.3980;1.2219;
1312.5000;0.4029;1.2406;
1312.8000;0.4029;1.2429;
1313.1000;0.4037;1.2476;
1313.4000;0.4046;1.2453;
1313.7000;0.4046;1.2429;
1314.0000;0.4037;1.2523;
1314.3000;0.4021;1.2476;
1314.6000;0.4021;1.2429;
1314.9000;0.4005;1.2336;
1315.2000;0.4021;1.2336;
1315.5000;0.4046;1.2406;
1315.8000;0.4021;1.2406;
1316.1000;0.4037;1.2546;
1316.4000;0.4029;1.2593;
1316.7000;0.4021;1.2687;
1317.0000;0.4029;1.2710;
1317.3000;0.4005;1.2429;
1317.6000;0.4021;1.2593;
1317.9000;0.3980;1.2476;
1318.2000;0.4078;1.2663;
1318.5000;0.4086;1.2663;
1318.8000;0.4021;1.2499;
1319.1000;0.3997;1.2499;
1319.4000;0.4021;1.2523;
1319.7000;0.4029;1.2546;
1320.0000;0.3997;1.2570;
1320.3000;0.4046;1.2616;
1320.6000;0.4037;1.2640;
1320.9000;0.4046;1.2733;
1321.2000;0.4037;1.2687;
1321.5000;0.4021;1.2640;
1321.8000;0.4021;1.2640;
1322.1000;0.4029;1.2663;
1322.4000;0.4029;1.2663;
1322.7000;0.4013;1.2640;
1323.0000;0.4029;1.2640;
1323.3000;0.4021;1.2570;
1323.6000;0.4037;1.2640;
1323.9000;0.4029;1.2616;
1324.2000;0.4029;1.2546;
1324.5000;0.4037;1.2523;
1324.8000;0.4029;1.2546;
1325.1000;0.4046;1.2546;
1325.4000;0.4046;1.2453;
1325.7000;0.4054;1.2570;
1326.0000;0.4013;1.2523;
1326.3000;0.4078;1.2640;
1326.6000;0.4046;1.2593;
1326.9000;0.3956;1.2336;
1327.2000;0.4037;1.2570;
1327.5000;0.4046;1.2616;
1327.8000;0.4021;1.2570;
1328.1000;0.4037;1.2663;
1328.4000;0.4029;1.2687;
1328.7000;0.4062;1.2663;
1329.0000;0.4005;1.2499;
1329.3000;0.4029;1.2523;
1329.6000;0.4046;1.2593;
1329.9000;0.4046;1.2523;
1330.2000;0.4037;1.2499;
1330.5000;0.4021;1.2429;
1330.8000;0.4037;1.2453;
1331.1000;0.4062;1.2476;
1331.4000;0.4046;1.2406;
1331.7000;0.4054;1.2429;
1332.0000;0.4054;1.2429;
1332.3000;0.4013;1.2312;
1332.6000;0.4054;1.2523;
1332.9000;0.4005;1.2476;
1333.2000;0.4046;1.2523;
1333.5000;0.4046;1.2499;
1333.8000;0.4021;1.2336;
1334.1000;0.4046;1.2242;
1334.4000;0.3997;1.2195;
1334.7000;0.4021;1.2359;
1335.0000;0.4046;1.2453;
1335.3000;0.4029;1.2406;
1335.6000;0.4029;1.2499;
1335.9000;0.4029;1.2570;
1336.2000;0.4029;1.2593;
1336.5000;0.4070;1.2663;
1336.8000;0.3997;1.2476;
1337.1000;0.4037;1.2570;
1337.4000;0.4037;1.2546;
1337.7000;0.4029;1.2593;
1338.0000;0.4070;1.2710;
1338.3000;0.4005;1.2570;
1338.6000;0.4021;1.2570;
1338.9000;0.4021;1.2499;
1339.2000;0.4029;1.2546;
1339.5000;0.4037;1.2499;
1339.8000;0.4029;1.2523;
1340.1000;0.4005;1.2499;
1340.4000;0.4037;1.2406;
1340.7000;0.4029;1.2406;
1341.0000;0.4103;1.2546;
1341.3000;0.4037;1.2429;
1341.6000;0.4029;1.2336;
1341.9000;0.4037;1.2406;
1342.2000;0.3980;1.2195;
1342.5000;0.4037;1.2336;
1342.8000;0.4013;1.2242;
1343.1000;0.4029;1.2453;
1343.4000;0.4021;1.2476;
1343.7000;0.4029;1.2476;
1344.0000;0.4054;1.2523;
1344.3000;0.4037;1.2453;
1344.6000;0.4046;1.2453;
1344.9000;0.4037;1.2336;
1345.2000;0.4013;1.2336;
1345.5000;0.4054;1.2476;
1345.8000;0.4021;1.2453;
1346.1000;0.4037;1.2429;
1346.4000;0.4029;1.2406;
1346.7000;0.4029;1.2382;
1347.0000;0.4005;1.2406;
1347.3000;0.4037;1.2453;
1347.6000;0.4054;1.2523;
1347.9000;0.4029;1.2546;
1348.2000;0.4054;1.2640;
1348.5000;0.4054;1.2640;
1348.8000;0.4037;1.2616;
1349.1000;0.4013;1.2546;
1349.4000;0.4029;1.2640;
1349.7000;0.4029;1.2616;
1350.0000;0.4029;1.2616;
1350.3000;0.4029;1.2663;
1350.6000;0.4103;1.2874;
1350.9000;0.4054;1.2687;
1351.2000;0.4046;1.2616;
1351.5000;0.4021;1.2476;
1351.8000;0.4046;1.2429;
1352.1000;0.4054;1.2382;
1352.4000;0.4037;1.2382;
1352.7000;0.4029;1.2406;
1353.0000;0.4037;1.2406;
1353.3000;0.4046;1.2382;
1353.6000;0.4029;1.2289;
1353.9000;0.4046;1.2289;
1354.2000;0.4037;1.2336;
1354.5000;0.4054;1.2289;
1354.8000;0.4062;1.2312;
1355.1000;0.4054;1.2289;
1355.4000;0.4046;1.2289;
1355.7000;0.4046;1.2219;
1356.0000;0.4037;1.2242;
1356.3000;0.4054;1.2265;
1356.6000;0.4062;1.2265;
1356.9000;0.3997;1.2219;
1357.2000;0.4046;1.2336;
1357.5000;0.4029;1.2406;
1357.8000;0.4078;1.2546;
1358.1000;0.4046;1.2453;
1358.4000;0.4029;1.2312;
1358.7000;0.4037;1.2336;
1359.0000;0.4046;1.2289;
1359.3000;0.4037;1.2242;
1359.6000;0.4013;1.2195;
1359.9000;0.4054;1.2242;
1360.2000;0.4021;1.2031;
1360.5000;0.4078;1.2219;
1360.8000;0.3997;1.2148;
1361.1000;0.4037;1.2195;
1361.4000;0.4029;1.2242;
1361.7000;0.4013;1.2242;
1362.0000;0.4037;1.2265;
1362.3000;0.4046;1.2289;
1362.6000;0.4046;1.2312;
1362.9000;0.4029;1.2289;
1363.2000;0.4054;1.2359;
1363.5000;0.4046;1.2312;
1363.8000;0.4029;1.2289;
1364.1000;0.4029;1.2265;
1364.4000;0.4046;1.2219;
1364.7000;0.4013;1.2055;
1365.0000;0.4078;1.2219;
1365.3000;0.4029;1.2195;
1365.6000;0.3964;1.2125;
1365.9000;0.4021;1.2312;
1366.2000;0.4029;1.2382;
1366.5000;0.4013;1.2289;
1366.8000;0.4103;1.2499;
1367.1000;0.4103;1.2546;
1367.4000;0.4054;1.2406;
1367.7000;0.4046;1.2406;
1368.0000;0.4021;1.2382;
1368.3000;0.4086;1.2499;
1368.6000;0.4021;1.2312;
1368.9000;0.4029;1.2336;
1369.2000;0.4062;1.2359;
1369.5000;0.4046;1.2312;
1369.8000;0.4046;1.2359;
1370.1000;0.4029;1.2429;
1370.4000;0.4070;1.2476;
1370.7000;0.4037;1.2453;
1371.0000;0.4046;1.2382;
1371.3000;0.4037;1.2359;
1371.6000;0.4070;1.2476;
1371.9000;0.4054;1.2382;
1372.2000;0.3989;1.2195;
1372.5000;0.4029;1.2265;
1372.8000;0.4062;1.2406;
1373.1000;0.4037;1.2289;
1373.4000;0.4046;1.2242;
1373.7000;0.4062;1.2242;
1374.0000;0.4070;1.2289;
1374.3000;0.4054;1.2312;
1374.6000;0.4037;1.2195;
1374.9000;0.4029;1.2265;
1375.2000;0.4046;1.2265;
1375.5000;0.4046;1.2219;
1375.8000;0.4021;1.2101;
1376.1000;0.4029;1.2148;
1376.4000;0.4021;1.2101;
1376.7000;0.4037;1.2219;
1377.0000;0.4037;1.2219;
1377.3000;0.4054;1.2265;
1377.6000;0.4046;1.2312;
1377.9000;0.4005;1.2242;
1378.2000;0.4005;1.2148;
1378.5000;0.4005;1.2148;
1378.8000;0.3989;1.2055;
1379.1000;0.4021;1.2101;
1379.4000;0.4054;1.2125;
1379.7000;0.4070;1.2172;
1380.0000;0.4046;1.2195;
1380.3000;0.4119;1.2499;
1380.6000;0.4037;1.2382;
1380.9000;0.4021;1.2382;
1381.2000;0.4021;1.2359;
1381.5000;0.4029;1.2382;
1381.8000;0.4094;1.2499;
1382.1000;0.4029;1.2265;
1382.4000;0.4021;1.2265;
1382.7000;0.4029;1.2312;
1383.0000;0.4054;1.2429;
1383.3000;0.4037;1.2312;
1383.6000;0.4037;1.2265;
1383.9000;0.4046;1.2312;
1384.2000;0.4046;1.2289;
1384.5000;0.4029;1.2359;
1384.8000;0.4013;1.2359;
1385.1000;0.4037;1.2406;
1385.4000;0.4029;1.2499;
1385.7000;0.4037;1.2429;
1386.0000;0.4029;1.2336;
1386.3000;0.4021;1.2359;
1386.6000;0.4029;1.2359;
1386.9000;0.4078;1.2453;
1387.2000;0.3997;1.2359;
1387.5000;0.4029;1.2453;
1387.8000;0.4054;1.2570;
1388.1000;0.4046;1.2499;
1388.4000;0.4013;1.2289;
1388.7000;0.4013;1.2219;
1389.0000;0.4111;1.2523;
1389.3000;0.4037;1.2382;
1389.6000;0.4054;1.2382;
1389.9000;0.4046;1.2429;
1390.2000;0.4046;1.2499;
1390.5000;0.4062;1.2476;
1390.8000;0.4094;1.2570;
1391.1000;0.4037;1.2429;
1391.4000;0.4046;1.2359;
1391.7000;0.4054;1.2382;
1392.0000;0.4046;1.2312;
1392.3000;0.4046;1.2359;
1392.6000;0.4135;1.2593;
1392.9000;0.4037;1.2406;
1393.2000;0.4111;1.2687;
1393.5000;0.4127;1.2687;
1393.8000;0.4029;1.2406;
1394.1000;0.4046;1.2499;
1394.4000;0.4160;1.2640;
1394.7000;0.4037;1.2312;
1395.0000;0.4005;1.2195;
1395.3000;0.4021;1.2265;
1395.6000;0.4029;1.2359;
1395.9000;0.4078;1.2476;
1396.2000;0.4013;1.2336;
1396.5000;0.4029;1.2312;
1396.8000;0.4127;1.2570;
1397.1000;0.4062;1.2476;
1397.4000;0.4062;1.2453;
1397.7000;0.4078;1.2476;
1398.0000;0.4037;1.2406;
1398.3000;0.4054;1.2499;
1398.6000;0.4062;1.2476;
1398.9000;0.4037;1.2499;
1399.2000;0.3997;1.2429;
1399.5000;0.4046;1.2499;
1399.8000;0.3980;1.2406;
