time/ms;Fluo/V;P700 deltaI/I x10³;
-199.8000;0.9280;0.6499;
-199.5000;0.9328;0.6600;
-199.2000;0.9288;0.6499;
-198.9000;0.9288;0.6549;
-198.6000;0.9271;0.6524;
-198.3000;0.9296;0.6549;
-198.0000;0.9288;0.6625;
-197.7000;0.9280;0.6625;
-197.4000;0.9271;0.6600;
-197.1000;0.9280;0.6650;
-196.8000;0.9304;0.6650;
-196.5000;0.9271;0.6600;
-196.2000;0.9271;0.6650;
-195.9000;0.9271;0.6675;
-195.6000;0.9280;0.6701;
-195.3000;0.9288;0.6751;
-195.0000;0.9255;0.6877;
-194.7000;0.9280;0.6852;
-194.4000;0.9280;0.6877;
-194.1000;0.9280;0.6801;
-193.8000;0.9271;0.6701;
-193.5000;0.9345;0.6927;
-193.2000;0.9288;0.6826;
-192.9000;0.9263;0.6852;
-192.6000;0.9263;0.6801;
-192.3000;0.9337;0.6978;
-192.0000;0.9280;0.6801;
-191.7000;0.9280;0.6776;
-191.4000;0.9263;0.6726;
-191.1000;0.9280;0.6675;
-190.8000;0.9280;0.6701;
-190.5000;0.9271;0.6650;
-190.2000;0.9280;0.6726;
-189.9000;0.9296;0.6776;
-189.6000;0.9271;0.6726;
-189.3000;0.9288;0.6751;
-189.0000;0.9296;0.6701;
-188.7000;0.9263;0.6524;
-188.4000;0.9263;0.6549;
-188.1000;0.9280;0.6549;
-187.8000;0.9271;0.6600;
-187.5000;0.9271;0.6600;
-187.2000;0.9271;0.6524;
-186.9000;0.9271;0.6499;
-186.6000;0.9280;0.6575;
-186.3000;0.9263;0.6625;
-186.0000;0.9263;0.6675;
-185.7000;0.9271;0.6726;
-185.4000;0.9271;0.6726;
-185.1000;0.9255;0.6625;
-184.8000;0.9271;0.6625;
-184.5000;0.9263;0.6625;
-184.2000;0.9288;0.6701;
-183.9000;0.9288;0.6701;
-183.6000;0.9280;0.6650;
-183.3000;0.9255;0.6575;
-183.0000;0.9280;0.6600;
-182.7000;0.9255;0.6575;
-182.4000;0.9271;0.6625;
-182.1000;0.9271;0.6650;
-181.8000;0.9271;0.6650;
-181.5000;0.9263;0.6575;
-181.2000;0.9271;0.6474;
-180.9000;0.9263;0.6423;
-180.6000;0.9263;0.6449;
-180.3000;0.9288;0.6575;
-180.0000;0.9271;0.6625;
-179.7000;0.9280;0.6600;
-179.4000;0.9271;0.6701;
-179.1000;0.9288;0.6675;
-178.8000;0.9280;0.6701;
-178.5000;0.9263;0.6650;
-178.2000;0.9271;0.6726;
-177.9000;0.9312;0.6826;
-177.6000;0.9280;0.6726;
-177.3000;0.9255;0.6701;
-177.0000;0.9288;0.6801;
-176.7000;0.9280;0.6852;
-176.4000;0.9288;0.6826;
-176.1000;0.9271;0.6801;
-175.8000;0.9206;0.6600;
-175.5000;0.9288;0.6801;
-175.2000;0.9304;0.6726;
-174.9000;0.9223;0.6600;
-174.6000;0.9271;0.6776;
-174.3000;0.9271;0.6826;
-174.0000;0.9271;0.6826;
-173.7000;0.9288;0.6852;
-173.4000;0.9271;0.6852;
-173.1000;0.9263;0.6852;
-172.8000;0.9271;0.6927;
-172.5000;0.9280;0.6877;
-172.2000;0.9288;0.6877;
-171.9000;0.9280;0.6877;
-171.6000;0.9304;0.6902;
-171.3000;0.9320;0.6927;
-171.0000;0.9280;0.6801;
-170.7000;0.9271;0.6751;
-170.4000;0.9280;0.6726;
-170.1000;0.9304;0.6726;
-169.8000;0.9263;0.6701;
-169.5000;0.9280;0.6650;
-169.2000;0.9288;0.6675;
-168.9000;0.9280;0.6701;
-168.6000;0.9296;0.6726;
-168.3000;0.9312;0.6751;
-168.0000;0.9271;0.6675;
-167.7000;0.9271;0.6726;
-167.4000;0.9288;0.6751;
-167.1000;0.9263;0.6675;
-166.8000;0.9271;0.6675;
-166.5000;0.9296;0.6675;
-166.2000;0.9296;0.6701;
-165.9000;0.9288;0.6625;
-165.6000;0.9320;0.6625;
-165.3000;0.9288;0.6575;
-165.0000;0.9263;0.6524;
-164.7000;0.9271;0.6650;
-164.4000;0.9304;0.6701;
-164.1000;0.9263;0.6625;
-163.8000;0.9296;0.6751;
-163.5000;0.9280;0.6625;
-163.2000;0.9337;0.6902;
-162.9000;0.9280;0.6801;
-162.6000;0.9280;0.6751;
-162.3000;0.9304;0.6776;
-162.0000;0.9271;0.6675;
-161.7000;0.9271;0.6650;
-161.4000;0.9263;0.6650;
-161.1000;0.9280;0.6650;
-160.8000;0.9271;0.6625;
-160.5000;0.9280;0.6625;
-160.2000;0.9263;0.6600;
-159.9000;0.9280;0.6650;
-159.6000;0.9247;0.6701;
-159.3000;0.9271;0.6726;
-159.0000;0.9263;0.6751;
-158.7000;0.9288;0.6801;
-158.4000;0.9280;0.6801;
-158.1000;0.9263;0.6726;
-157.8000;0.9280;0.6826;
-157.5000;0.9288;0.6776;
-157.2000;0.9288;0.6826;
-156.9000;0.9263;0.6826;
-156.6000;0.9255;0.6776;
-156.3000;0.9247;0.6701;
-156.0000;0.9288;0.6701;
-155.7000;0.9239;0.6575;
-155.4000;0.9271;0.6650;
-155.1000;0.9271;0.6701;
-154.8000;0.9280;0.6675;
-154.5000;0.9280;0.6625;
-154.2000;0.9280;0.6600;
-153.9000;0.9280;0.6549;
-153.6000;0.9312;0.6600;
-153.3000;0.9304;0.6650;
-153.0000;0.9280;0.6549;
-152.7000;0.9288;0.6600;
-152.4000;0.9271;0.6549;
-152.1000;0.9280;0.6625;
-151.8000;0.9280;0.6650;
-151.5000;0.9255;0.6499;
-151.2000;0.9271;0.6549;
-150.9000;0.9271;0.6575;
-150.6000;0.9271;0.6524;
-150.3000;0.9214;0.6474;
-150.0000;0.9263;0.6625;
-149.7000;0.9288;0.6675;
-149.4000;0.9263;0.6600;
-149.1000;0.9288;0.6751;
-148.8000;0.9280;0.6701;
-148.5000;0.9280;0.6701;
-148.2000;0.9288;0.6726;
-147.9000;0.9231;0.6600;
-147.6000;0.9280;0.6675;
-147.3000;0.9353;0.6826;
-147.0000;0.9288;0.6600;
-146.7000;0.9280;0.6549;
-146.4000;0.9280;0.6524;
-146.1000;0.9280;0.6474;
-145.8000;0.9280;0.6549;
-145.5000;0.9271;0.6524;
-145.2000;0.9271;0.6499;
-144.9000;0.9271;0.6575;
-144.6000;0.9280;0.6625;
-144.3000;0.9239;0.6524;
-144.0000;0.9247;0.6575;
-143.7000;0.9288;0.6776;
-143.4000;0.9296;0.6826;
-143.1000;0.9288;0.6776;
-142.8000;0.9288;0.6826;
-142.5000;0.9223;0.6675;
-142.2000;0.9255;0.6776;
-141.9000;0.9271;0.6877;
-141.6000;0.9280;0.6877;
-141.3000;0.9263;0.6826;
-141.0000;0.9288;0.6902;
-140.7000;0.9280;0.6852;
-140.4000;0.9280;0.6776;
-140.1000;0.9263;0.6675;
-139.8000;0.9288;0.6751;
-139.5000;0.9271;0.6751;
-139.2000;0.9239;0.6650;
-138.9000;0.9280;0.6701;
-138.6000;0.9271;0.6650;
-138.3000;0.9280;0.6726;
-138.0000;0.9263;0.6726;
-137.7000;0.9263;0.6701;
-137.4000;0.9263;0.6751;
-137.1000;0.9271;0.6852;
-136.8000;0.9280;0.6877;
-136.5000;0.9271;0.6902;
-136.2000;0.9304;0.6877;
-135.9000;0.9280;0.6776;
-135.6000;0.9296;0.6751;
-135.3000;0.9280;0.6701;
-135.0000;0.9280;0.6600;
-134.7000;0.9296;0.6675;
-134.4000;0.9288;0.6650;
-134.1000;0.9280;0.6549;
-133.8000;0.9280;0.6549;
-133.5000;0.9304;0.6625;
-133.2000;0.9288;0.6650;
-132.9000;0.9271;0.6625;
-132.6000;0.9247;0.6549;
-132.3000;0.9296;0.6549;
-132.0000;0.9288;0.6449;
-131.7000;0.9280;0.6474;
-131.4000;0.9280;0.6449;
-131.1000;0.9271;0.6449;
-130.8000;0.9263;0.6524;
-130.5000;0.9280;0.6549;
-130.2000;0.9288;0.6625;
-129.9000;0.9280;0.6575;
-129.6000;0.9296;0.6474;
-129.3000;0.9288;0.6449;
-129.0000;0.9288;0.6323;
-128.7000;0.9345;0.6499;
-128.4000;0.9271;0.6373;
-128.1000;0.9304;0.6474;
-127.8000;0.9288;0.6297;
-127.5000;0.9288;0.6272;
-127.2000;0.9280;0.6348;
-126.9000;0.9255;0.6474;
-126.6000;0.9223;0.6449;
-126.3000;0.9263;0.6549;
-126.0000;0.9271;0.6499;
-125.7000;0.9255;0.6474;
-125.4000;0.9288;0.6449;
-125.1000;0.9353;0.6549;
-124.8000;0.9288;0.6297;
-124.5000;0.9271;0.6297;
-124.2000;0.9296;0.6373;
-123.9000;0.9239;0.6247;
-123.6000;0.9296;0.6373;
-123.3000;0.9247;0.6323;
-123.0000;0.9288;0.6474;
-122.7000;0.9271;0.6549;
-122.4000;0.9271;0.6474;
-122.1000;0.9271;0.6524;
-121.8000;0.9271;0.6474;
-121.5000;0.9304;0.6575;
-121.2000;0.9434;0.6877;
-120.9000;0.9271;0.6575;
-120.6000;0.9312;0.6625;
-120.3000;0.9280;0.6600;
-120.0000;0.9280;0.6600;
-119.7000;0.9280;0.6650;
-119.4000;0.9271;0.6575;
-119.1000;0.9280;0.6625;
-118.8000;0.9280;0.6600;
-118.5000;0.9239;0.6575;
-118.2000;0.9304;0.6726;
-117.9000;0.9288;0.6701;
-117.6000;0.9345;0.6877;
-117.3000;0.9280;0.6549;
-117.0000;0.9271;0.6600;
-116.7000;0.9271;0.6701;
-116.4000;0.9288;0.6726;
-116.1000;0.9312;0.6826;
-115.8000;0.9271;0.6751;
-115.5000;0.9280;0.6701;
-115.2000;0.9255;0.6625;
-114.9000;0.9271;0.6600;
-114.6000;0.9263;0.6600;
-114.3000;0.9288;0.6650;
-114.0000;0.9288;0.6701;
-113.7000;0.9288;0.6726;
-113.4000;0.9280;0.6675;
-113.1000;0.9345;0.6852;
-112.8000;0.9271;0.6675;
-112.5000;0.9296;0.6625;
-112.2000;0.9271;0.6600;
-111.9000;0.9271;0.6524;
-111.6000;0.9280;0.6524;
-111.3000;0.9296;0.6549;
-111.0000;0.9271;0.6474;
-110.7000;0.9255;0.6398;
-110.4000;0.9288;0.6499;
-110.1000;0.9288;0.6524;
-109.8000;0.9255;0.6499;
-109.5000;0.9288;0.6575;
-109.2000;0.9263;0.6549;
-108.9000;0.9288;0.6575;
-108.6000;0.9271;0.6549;
-108.3000;0.9280;0.6650;
-108.0000;0.9255;0.6650;
-107.7000;0.9280;0.6701;
-107.4000;0.9271;0.6650;
-107.1000;0.9263;0.6600;
-106.8000;0.9280;0.6650;
-106.5000;0.9288;0.6675;
-106.2000;0.9271;0.6675;
-105.9000;0.9271;0.6726;
-105.6000;0.9182;0.6499;
-105.3000;0.9271;0.6650;
-105.0000;0.9353;0.6877;
-104.7000;0.9271;0.6650;
-104.4000;0.9271;0.6524;
-104.1000;0.9271;0.6499;
-103.8000;0.9296;0.6575;
-103.5000;0.9263;0.6499;
-103.2000;0.9288;0.6625;
-102.9000;0.9288;0.6575;
-102.6000;0.9247;0.6398;
-102.3000;0.9280;0.6650;
-102.0000;0.9198;0.6373;
-101.7000;0.9263;0.6474;
-101.4000;0.9280;0.6449;
-101.1000;0.9296;0.6499;
-100.8000;0.9280;0.6499;
-100.5000;0.9296;0.6650;
-100.2000;0.9296;0.6701;
-99.9000;0.9271;0.6726;
-99.6000;0.9304;0.6751;
-99.3000;0.9280;0.6675;
-99.0000;0.9280;0.6625;
-98.7000;0.9231;0.6474;
-98.4000;0.9312;0.6726;
-98.1000;0.9214;0.6423;
-97.8000;0.9288;0.6549;
-97.5000;0.9304;0.6625;
-97.2000;0.9320;0.6650;
-96.9000;0.9337;0.6726;
-96.6000;0.9223;0.6524;
-96.3000;0.9263;0.6675;
-96.0000;0.9280;0.6650;
-95.7000;0.9280;0.6650;
-95.4000;0.9280;0.6600;
-95.1000;0.9239;0.6600;
-94.8000;0.9280;0.6701;
-94.5000;0.9271;0.6675;
-94.2000;0.9263;0.6726;
-93.9000;0.9280;0.6801;
-93.6000;0.9280;0.6826;
-93.3000;0.9271;0.6852;
-93.0000;0.9271;0.6751;
-92.7000;0.9280;0.6751;
-92.4000;0.9296;0.6801;
-92.1000;0.9223;0.6600;
-91.8000;0.9280;0.6751;
-91.5000;0.9288;0.6675;
-91.2000;0.9288;0.6625;
-90.9000;0.9288;0.6600;
-90.6000;0.9280;0.6600;
-90.3000;0.9312;0.6650;
-90.0000;0.9296;0.6575;
-89.7000;0.9271;0.6600;
-89.4000;0.9280;0.6575;
-89.1000;0.9280;0.6650;
-88.8000;0.9288;0.6726;
-88.5000;0.9288;0.6650;
-88.2000;0.9280;0.6575;
-87.9000;0.9280;0.6575;
-87.6000;0.9280;0.6524;
-87.3000;0.9296;0.6575;
-87.0000;0.9280;0.6600;
-86.7000;0.9247;0.6575;
-86.4000;0.9280;0.6675;
-86.1000;0.9288;0.6675;
-85.8000;0.9280;0.6650;
-85.5000;0.9353;0.6877;
-85.2000;0.9271;0.6675;
-84.9000;0.9255;0.6600;
-84.6000;0.9296;0.6701;
-84.3000;0.9271;0.6675;
-84.0000;0.9255;0.6675;
-83.7000;0.9288;0.6826;
-83.4000;0.9280;0.6902;
-83.1000;0.9280;0.7003;
-82.8000;0.9231;0.6852;
-82.5000;0.9288;0.6952;
-82.2000;0.9296;0.6952;
-81.9000;0.9280;0.6952;
-81.6000;0.9247;0.6826;
-81.3000;0.9288;0.6852;
-81.0000;0.9271;0.6852;
-80.7000;0.9263;0.6852;
-80.4000;0.9280;0.6877;
-80.1000;0.9280;0.6826;
-79.8000;0.9280;0.6826;
-79.5000;0.9280;0.6927;
-79.2000;0.9296;0.6978;
-78.9000;0.9280;0.6902;
-78.6000;0.9263;0.6877;
-78.3000;0.9280;0.6927;
-78.0000;0.9280;0.6877;
-77.7000;0.9263;0.6801;
-77.4000;0.9271;0.6726;
-77.1000;0.9288;0.6701;
-76.8000;0.9288;0.6675;
-76.5000;0.9288;0.6675;
-76.2000;0.9263;0.6549;
-75.9000;0.9271;0.6474;
-75.6000;0.9263;0.6474;
-75.3000;0.9304;0.6600;
-75.0000;0.9280;0.6575;
-74.7000;0.9271;0.6549;
-74.4000;0.9296;0.6675;
-74.1000;0.9280;0.6600;
-73.8000;0.9263;0.6625;
-73.5000;0.9280;0.6675;
-73.2000;0.9271;0.6675;
-72.9000;0.9271;0.6701;
-72.6000;0.9271;0.6751;
-72.3000;0.9247;0.6575;
-72.0000;0.9239;0.6524;
-71.7000;0.9280;0.6650;
-71.4000;0.9271;0.6575;
-71.1000;0.9223;0.6499;
-70.8000;0.9271;0.6625;
-70.5000;0.9271;0.6625;
-70.2000;0.9239;0.6575;
-69.9000;0.9263;0.6575;
-69.6000;0.9296;0.6625;
-69.3000;0.9239;0.6499;
-69.0000;0.9288;0.6600;
-68.7000;0.9271;0.6524;
-68.4000;0.9288;0.6575;
-68.1000;0.9288;0.6625;
-67.8000;0.9288;0.6650;
-67.5000;0.9288;0.6675;
-67.2000;0.9280;0.6575;
-66.9000;0.9288;0.6549;
-66.6000;0.9280;0.6499;
-66.3000;0.9271;0.6575;
-66.0000;0.9280;0.6625;
-65.7000;0.9296;0.6650;
-65.4000;0.9288;0.6549;
-65.1000;0.9296;0.6474;
-64.8000;0.9296;0.6499;
-64.5000;0.9271;0.6474;
-64.2000;0.9320;0.6524;
-63.9000;0.9288;0.6373;
-63.6000;0.9280;0.6348;
-63.3000;0.9304;0.6398;
-63.0000;0.9288;0.6398;
-62.7000;0.9296;0.6474;
-62.4000;0.9280;0.6499;
-62.1000;0.9271;0.6423;
-61.8000;0.9255;0.6474;
-61.5000;0.9288;0.6600;
-61.2000;0.9296;0.6650;
-60.9000;0.9296;0.6600;
-60.6000;0.9280;0.6600;
-60.3000;0.9271;0.6650;
-60.0000;0.9271;0.6650;
-59.7000;0.9263;0.6625;
-59.4000;0.9288;0.6701;
-59.1000;0.9280;0.6650;
-58.8000;0.9263;0.6625;
-58.5000;0.9263;0.6650;
-58.2000;0.9271;0.6625;
-57.9000;0.9280;0.6625;
-57.6000;0.9296;0.6650;
-57.3000;0.9320;0.6625;
-57.0000;0.9280;0.6474;
-56.7000;0.9296;0.6474;
-56.4000;0.9280;0.6600;
-56.1000;0.9280;0.6650;
-55.8000;0.9312;0.6751;
-55.5000;0.9296;0.6701;
-55.2000;0.9263;0.6675;
-54.9000;0.9263;0.6650;
-54.6000;0.9312;0.6701;
-54.3000;0.9288;0.6625;
-54.0000;0.9271;0.6524;
-53.7000;0.9296;0.6575;
-53.4000;0.9263;0.6549;
-53.1000;0.9263;0.6499;
-52.8000;0.9296;0.6524;
-52.5000;0.9288;0.6549;
-52.2000;0.9271;0.6499;
-51.9000;0.9288;0.6499;
-51.6000;0.9288;0.6524;
-51.3000;0.9304;0.6600;
-51.0000;0.9280;0.6600;
-50.7000;0.9288;0.6524;
-50.4000;0.9369;0.6650;
-50.1000;0.9280;0.6423;
-49.8000;0.9271;0.6398;
-49.5000;0.9280;0.6423;
-49.2000;0.9263;0.6499;
-48.9000;0.9288;0.6549;
-48.6000;0.9263;0.6575;
-48.3000;0.9263;0.6600;
-48.0000;0.9280;0.6650;
-47.7000;0.9320;0.6701;
-47.4000;0.9280;0.6549;
-47.1000;0.9255;0.6625;
-46.8000;0.9255;0.6675;
-46.5000;0.9263;0.6801;
-46.2000;0.9271;0.6801;
-45.9000;0.9263;0.6726;
-45.6000;0.9271;0.6726;
-45.3000;0.9296;0.6726;
-45.0000;0.9271;0.6701;
-44.7000;0.9271;0.6701;
-44.4000;0.9280;0.6701;
-44.1000;0.9280;0.6701;
-43.8000;0.9231;0.6600;
-43.5000;0.9271;0.6751;
-43.2000;0.9361;0.6952;
-42.9000;0.9288;0.6726;
-42.6000;0.9288;0.6675;
-42.3000;0.9288;0.6650;
-42.0000;0.9280;0.6625;
-41.7000;0.9288;0.6650;
-41.4000;0.9288;0.6726;
-41.1000;0.9296;0.6726;
-40.8000;0.9304;0.6801;
-40.5000;0.9288;0.6751;
-40.2000;0.9280;0.6751;
-39.9000;0.9280;0.6726;
-39.6000;0.9271;0.6650;
-39.3000;0.9263;0.6499;
-39.0000;0.9271;0.6549;
-38.7000;0.9288;0.6524;
-38.4000;0.9263;0.6499;
-38.1000;0.9280;0.6625;
-37.8000;0.9271;0.6600;
-37.5000;0.9304;0.6650;
-37.2000;0.9280;0.6524;
-36.9000;0.9280;0.6575;
-36.6000;0.9296;0.6600;
-36.3000;0.9312;0.6625;
-36.0000;0.9280;0.6575;
-35.7000;0.9271;0.6499;
-35.4000;0.9280;0.6449;
-35.1000;0.9271;0.6524;
-34.8000;0.9263;0.6549;
-34.5000;0.9255;0.6524;
-34.2000;0.9255;0.6575;
-33.9000;0.9263;0.6600;
-33.6000;0.9280;0.6701;
-33.3000;0.9271;0.6675;
-33.0000;0.9271;0.6675;
-32.7000;0.9280;0.6575;
-32.4000;0.9280;0.6549;
-32.1000;0.9280;0.6524;
-31.8000;0.9271;0.6575;
-31.5000;0.9296;0.6650;
-31.2000;0.9304;0.6675;
-30.9000;0.9304;0.6701;
-30.6000;0.9280;0.6625;
-30.3000;0.9296;0.6575;
-30.0000;0.9304;0.6625;
-29.7000;0.9263;0.6449;
-29.4000;0.9288;0.6499;
-29.1000;0.9263;0.6423;
-28.8000;0.9271;0.6449;
-28.5000;0.9304;0.6474;
-28.2000;0.9271;0.6373;
-27.9000;0.9271;0.6398;
-27.6000;0.9385;0.6575;
-27.3000;0.9296;0.6373;
-27.0000;0.9271;0.6323;
-26.7000;0.9271;0.6323;
-26.4000;0.9255;0.6323;
-26.1000;0.9247;0.6272;
-25.8000;0.9288;0.6499;
-25.5000;0.9271;0.6575;
-25.2000;0.9280;0.6549;
-24.9000;0.9280;0.6549;
-24.6000;0.9296;0.6600;
-24.3000;0.9280;0.6600;
-24.0000;0.9337;0.6751;
-23.7000;0.9280;0.6625;
-23.4000;0.9280;0.6650;
-23.1000;0.9263;0.6751;
-22.8000;0.9312;0.6877;
-22.5000;0.9271;0.6701;
-22.2000;0.9271;0.6675;
-21.9000;0.9206;0.6449;
-21.6000;0.9280;0.6600;
-21.3000;0.9280;0.6524;
-21.0000;0.9337;0.6625;
-20.7000;0.9263;0.6549;
-20.4000;0.9280;0.6549;
-20.1000;0.9288;0.6575;
-19.8000;0.9288;0.6675;
-19.5000;0.9280;0.6675;
-19.2000;0.9288;0.6675;
-18.9000;0.9280;0.6650;
-18.6000;0.9288;0.6650;
-18.3000;0.9280;0.6650;
-18.0000;0.9280;0.6650;
-17.7000;0.9271;0.6575;
-17.4000;0.9280;0.6600;
-17.1000;0.9296;0.6675;
-16.8000;0.9304;0.6675;
-16.5000;0.9304;0.6701;
-16.2000;0.9288;0.6726;
-15.9000;0.9288;0.6776;
-15.6000;0.9304;0.6751;
-15.3000;0.9320;0.6751;
-15.0000;0.9345;0.6852;
-14.7000;0.9320;0.6776;
-14.4000;0.9288;0.6701;
-14.1000;0.9271;0.6575;
-13.8000;0.9247;0.6549;
-13.5000;0.9271;0.6625;
-13.2000;0.9288;0.6650;
-12.9000;0.9271;0.6650;
-12.6000;0.9328;0.6776;
-12.3000;0.9271;0.6675;
-12.0000;0.9288;0.6650;
-11.7000;0.9361;0.6801;
-11.4000;0.9296;0.6575;
-11.1000;0.9271;0.6524;
-10.8000;0.9288;0.6549;
-10.5000;0.9271;0.6524;
-10.2000;0.9288;0.6449;
-9.9000;0.9247;0.6373;
-9.6000;0.9271;0.6373;
-9.3000;0.9288;0.6423;
-9.0000;0.9263;0.6348;
-8.7000;0.9271;0.6373;
-8.4000;0.9263;0.6373;
-8.1000;0.9271;0.6348;
-7.8000;0.9263;0.6348;
-7.5000;0.9263;0.6323;
-7.2000;0.9288;0.6398;
-6.9000;0.9337;0.6575;
-6.6000;0.9271;0.6474;
-6.3000;0.9280;0.6474;
-6.0000;0.9296;0.6524;
-5.7000;0.9288;0.6474;
-5.4000;0.9255;0.6449;
-5.1000;0.9271;0.6499;
-4.8000;0.9280;0.6524;
-4.5000;0.9231;0.6549;
-4.2000;0.9231;0.6625;
-3.9000;0.9280;0.6751;
-3.6000;0.9320;0.6826;
-3.3000;0.9271;0.6726;
-3.0000;0.9280;0.6625;
-2.7000;0.9255;0.6625;
-2.4000;0.9231;0.6474;
-2.1000;0.9288;0.6524;
-1.8000;0.9231;0.6474;
-1.5000;0.9288;0.6575;
-1.2000;0.9271;0.6600;
-0.9000;0.9280;0.6650;
-0.6000;0.9296;0.6625;
-0.3000;0.9280;0.6650;
0.0000;0.9280;0.6650;
0.3000;0.9426;0.6852;
0.6000;0.9662;0.7104;
0.9000;0.9801;0.7431;
1.2000;0.9972;0.7759;
1.5000;1.0110;0.8061;
1.8000;1.0159;0.8136;
2.1000;1.0248;0.8363;
2.4000;1.0305;0.8464;
2.7000;1.0354;0.8565;
3.0000;1.0395;0.8766;
3.3000;1.0460;0.8968;
3.6000;1.0484;0.9018;
3.9000;1.0533;0.9068;
4.2000;1.0525;0.8993;
4.5000;1.0590;0.9119;
4.8000;1.0606;0.9220;
5.1000;1.0598;0.9320;
5.4000;1.0639;0.9421;
5.7000;1.0647;0.9446;
6.0000;1.0672;0.9497;
6.3000;1.0680;0.9497;
6.6000;1.0663;0.9396;
6.9000;1.0696;0.9345;
7.2000;1.0720;0.9320;
7.5000;1.0737;0.9245;
7.8000;1.0745;0.9169;
8.1000;1.0753;0.9119;
8.4000;1.0802;0.9194;
8.7000;1.0794;0.9094;
9.0000;1.0802;0.9119;
9.3000;1.0794;0.9068;
9.6000;1.0777;0.9043;
9.9000;1.0818;0.9119;
10.2000;1.0834;0.9094;
10.5000;1.0777;0.9043;
10.8000;1.0818;0.9144;
11.1000;1.0851;0.9068;
11.4000;1.0859;0.9043;
11.7000;1.0867;0.8942;
12.0000;1.0875;0.8942;
12.3000;1.0948;0.9194;
12.6000;1.0891;0.9144;
12.9000;1.0891;0.9220;
13.2000;1.0859;0.9068;
13.5000;1.0908;0.9169;
13.8000;1.0891;0.9169;
14.1000;1.0908;0.9169;
14.4000;1.0924;0.9094;
14.7000;1.0940;0.9245;
15.0000;1.0940;0.9220;
15.3000;1.0940;0.9169;
15.6000;1.0956;0.9119;
15.9000;1.0956;0.9194;
16.2000;1.0965;0.9270;
16.5000;1.0973;0.9220;
16.8000;1.0965;0.9169;
17.1000;1.0973;0.9220;
17.4000;1.1087;0.9396;
17.7000;1.0981;0.9194;
18.0000;1.0981;0.9144;
18.3000;1.0956;0.9068;
18.6000;1.1013;0.9194;
18.9000;1.1087;0.9396;
19.2000;1.1013;0.9220;
19.5000;1.1022;0.9220;
19.8000;1.1038;0.9220;
20.1000;1.1013;0.9245;
20.4000;1.0956;0.9018;
20.7000;1.1022;0.9068;
21.0000;1.1030;0.9043;
21.3000;1.1046;0.8968;
21.6000;1.1038;0.8917;
21.9000;1.1062;0.9043;
22.2000;1.1054;0.9068;
22.5000;1.1046;0.9043;
22.8000;1.1030;0.8968;
23.1000;1.1030;0.8942;
23.4000;1.1062;0.9068;
23.7000;1.1062;0.9094;
24.0000;1.1062;0.9169;
24.3000;1.1070;0.9194;
24.6000;1.1054;0.9119;
24.9000;1.1022;0.8892;
25.2000;1.1062;0.9119;
25.5000;1.1054;0.9119;
25.8000;1.1095;0.9169;
26.1000;1.1087;0.9119;
26.4000;1.1030;0.8968;
26.7000;1.1038;0.8993;
27.0000;1.1103;0.9245;
27.3000;1.1103;0.9320;
27.6000;1.1103;0.9295;
27.9000;1.1079;0.9169;
28.2000;1.1103;0.9194;
28.5000;1.1111;0.9119;
28.8000;1.1111;0.9119;
29.1000;1.1103;0.9119;
29.4000;1.1095;0.9094;
29.7000;1.1095;0.9068;
30.0000;1.1119;0.9169;
30.3000;1.1111;0.9144;
30.6000;1.1103;0.9194;
30.9000;1.1070;0.9068;
31.2000;1.1111;0.9144;
31.5000;1.1111;0.9144;
31.8000;1.1119;0.9295;
32.1000;1.1095;0.9295;
32.4000;1.1111;0.9345;
32.7000;1.1095;0.9295;
33.0000;1.1070;0.9194;
33.3000;1.1111;0.9295;
33.6000;1.1144;0.9396;
33.9000;1.1127;0.9421;
34.2000;1.1127;0.9371;
34.5000;1.1103;0.9396;
34.8000;1.1119;0.9471;
35.1000;1.1111;0.9471;
35.4000;1.1127;0.9547;
35.7000;1.1111;0.9396;
36.0000;1.1103;0.9345;
36.3000;1.1111;0.9345;
36.6000;1.1127;0.9295;
36.9000;1.1136;0.9345;
37.2000;1.1119;0.9345;
37.5000;1.1103;0.9295;
37.8000;1.1119;0.9345;
38.1000;1.1103;0.9320;
38.4000;1.1136;0.9320;
38.7000;1.1136;0.9320;
39.0000;1.1144;0.9345;
39.3000;1.1136;0.9371;
39.6000;1.1127;0.9345;
39.9000;1.1127;0.9295;
40.2000;1.1201;0.9497;
40.5000;1.1144;0.9320;
40.8000;1.1144;0.9270;
41.1000;1.1144;0.9270;
41.4000;1.1095;0.9068;
41.7000;1.1119;0.9144;
42.0000;1.1127;0.9194;
42.3000;1.1127;0.9220;
42.6000;1.1144;0.9270;
42.9000;1.1152;0.9320;
43.2000;1.1144;0.9320;
43.5000;1.1127;0.9295;
43.8000;1.1201;0.9446;
44.1000;1.1144;0.9270;
44.4000;1.1136;0.9220;
44.7000;1.1152;0.9295;
45.0000;1.1160;0.9371;
45.3000;1.1136;0.9345;
45.6000;1.1119;0.9270;
45.9000;1.1127;0.9245;
46.2000;1.1136;0.9245;
46.5000;1.1144;0.9320;
46.8000;1.1168;0.9371;
47.1000;1.1144;0.9320;
47.4000;1.1152;0.9270;
47.7000;1.1136;0.9295;
48.0000;1.1136;0.9220;
48.3000;1.1144;0.9270;
48.6000;1.1144;0.9245;
48.9000;1.1144;0.9295;
49.2000;1.1136;0.9295;
49.5000;1.1136;0.9245;
49.8000;1.1103;0.9094;
50.1000;1.1160;0.9169;
50.4000;1.1152;0.9169;
50.7000;1.1168;0.9245;
51.0000;1.1144;0.9245;
51.3000;1.1152;0.9194;
51.6000;1.1144;0.9194;
51.9000;1.1160;0.9144;
52.2000;1.1152;0.9220;
52.5000;1.1152;0.9220;
52.8000;1.1152;0.9068;
53.1000;1.1152;0.9043;
53.4000;1.1160;0.9018;
53.7000;1.1152;0.9043;
54.0000;1.1152;0.9119;
54.3000;1.1144;0.9043;
54.6000;1.1176;0.9144;
54.9000;1.1160;0.9194;
55.2000;1.1152;0.9245;
55.5000;1.1119;0.9194;
55.8000;1.1168;0.9320;
56.1000;1.1152;0.9320;
56.4000;1.1144;0.9396;
56.7000;1.1136;0.9345;
57.0000;1.1152;0.9396;
57.3000;1.1152;0.9345;
57.6000;1.1144;0.9270;
57.9000;1.1136;0.9320;
58.2000;1.1152;0.9295;
58.5000;1.1168;0.9295;
58.8000;1.1152;0.9320;
59.1000;1.1209;0.9421;
59.4000;1.1184;0.9371;
59.7000;1.1144;0.9295;
60.0000;1.1144;0.9194;
60.3000;1.1160;0.9270;
60.6000;1.1168;0.9371;
60.9000;1.1168;0.9396;
61.2000;1.1144;0.9295;
61.5000;1.1152;0.9345;
61.8000;1.1160;0.9371;
62.1000;1.1144;0.9320;
62.4000;1.1152;0.9220;
62.7000;1.1144;0.9144;
63.0000;1.1144;0.9068;
63.3000;1.1168;0.9094;
63.6000;1.1176;0.9119;
63.9000;1.1168;0.9068;
64.2000;1.1168;0.9043;
64.5000;1.1168;0.8993;
64.8000;1.1111;0.8917;
65.1000;1.1160;0.9068;
65.4000;1.1152;0.9018;
65.7000;1.1144;0.9068;
66.0000;1.1193;0.9144;
66.3000;1.1217;0.9220;
66.6000;1.1168;0.9270;
66.9000;1.1160;0.9270;
67.2000;1.1184;0.9371;
67.5000;1.1168;0.9320;
67.8000;1.1168;0.9396;
68.1000;1.1160;0.9446;
68.4000;1.1168;0.9446;
68.7000;1.1160;0.9522;
69.0000;1.1168;0.9471;
69.3000;1.1160;0.9371;
69.6000;1.1160;0.9396;
69.9000;1.1176;0.9396;
70.2000;1.1144;0.9345;
70.5000;1.1152;0.9371;
70.8000;1.1168;0.9446;
71.1000;1.1168;0.9396;
71.4000;1.1136;0.9320;
71.7000;1.1152;0.9345;
72.0000;1.1168;0.9371;
72.3000;1.1168;0.9421;
72.6000;1.1168;0.9471;
72.9000;1.1111;0.9270;
73.2000;1.1144;0.9396;
73.5000;1.1168;0.9371;
73.8000;1.1233;0.9522;
74.1000;1.1160;0.9320;
74.4000;1.1160;0.9295;
74.7000;1.1184;0.9295;
75.0000;1.1176;0.9245;
75.3000;1.1160;0.9270;
75.6000;1.1176;0.9245;
75.9000;1.1176;0.9270;
76.2000;1.1160;0.9245;
76.5000;1.1152;0.9320;
76.8000;1.1160;0.9270;
77.1000;1.1176;0.9320;
77.4000;1.1168;0.9345;
77.7000;1.1160;0.9345;
78.0000;1.1168;0.9371;
78.3000;1.1176;0.9471;
78.6000;1.1168;0.9446;
78.9000;1.1152;0.9371;
79.2000;1.1144;0.9371;
79.5000;1.1152;0.9345;
79.8000;1.1152;0.9295;
80.1000;1.1168;0.9371;
80.4000;1.1152;0.9371;
80.7000;1.1241;0.9522;
81.0000;1.1152;0.9345;
81.3000;1.1168;0.9320;
81.6000;1.1201;0.9522;
81.9000;1.1160;0.9421;
82.2000;1.1160;0.9421;
82.5000;1.1103;0.9220;
82.8000;1.1168;0.9345;
83.1000;1.1160;0.9270;
83.4000;1.1176;0.9345;
83.7000;1.1168;0.9421;
84.0000;1.1168;0.9320;
84.3000;1.1184;0.9320;
84.6000;1.1152;0.9245;
84.9000;1.1168;0.9371;
85.2000;1.1127;0.9245;
85.5000;1.1160;0.9320;
85.8000;1.1152;0.9371;
86.1000;1.1160;0.9270;
86.4000;1.1168;0.9295;
86.7000;1.1168;0.9371;
87.0000;1.1184;0.9396;
87.3000;1.1176;0.9471;
87.6000;1.1184;0.9547;
87.9000;1.1152;0.9446;
88.2000;1.1160;0.9446;
88.5000;1.1152;0.9471;
88.8000;1.1127;0.9371;
89.1000;1.1168;0.9471;
89.4000;1.1152;0.9497;
89.7000;1.1152;0.9446;
90.0000;1.1184;0.9421;
90.3000;1.1168;0.9421;
90.6000;1.1160;0.9295;
90.9000;1.1160;0.9295;
91.2000;1.1111;0.9194;
91.5000;1.1144;0.9295;
91.8000;1.1136;0.9220;
92.1000;1.1160;0.9169;
92.4000;1.1168;0.9119;
92.7000;1.1176;0.9119;
93.0000;1.1079;0.9018;
93.3000;1.1160;0.9194;
93.6000;1.1168;0.9220;
93.9000;1.1152;0.9295;
94.2000;1.1144;0.9320;
94.5000;1.1241;0.9471;
94.8000;1.1144;0.9194;
95.1000;1.1087;0.9169;
95.4000;1.1160;0.9295;
95.7000;1.1127;0.9194;
96.0000;1.1160;0.9270;
96.3000;1.1168;0.9270;
96.6000;1.1152;0.9320;
96.9000;1.1152;0.9295;
97.2000;1.1160;0.9245;
97.5000;1.1168;0.9270;
97.8000;1.1160;0.9295;
98.1000;1.1152;0.9270;
98.4000;1.1144;0.9295;
98.7000;1.1168;0.9320;
99.0000;1.1160;0.9270;
99.3000;1.1160;0.9169;
99.6000;1.1136;0.9169;
99.9000;1.1160;0.9220;
100.2000;1.1168;0.9220;
100.5000;1.1160;0.9345;
100.8000;1.1095;0.9094;
101.1000;1.1160;0.9295;
101.4000;1.1160;0.9371;
101.7000;1.1160;0.9371;
102.0000;1.1176;0.9421;
102.3000;1.1160;0.9446;
102.6000;1.1160;0.9497;
102.9000;1.1160;0.9547;
103.2000;1.1152;0.9522;
103.5000;1.1168;0.9597;
103.8000;1.1144;0.9497;
104.1000;1.1152;0.9471;
104.4000;1.1087;0.9245;
104.7000;1.1176;0.9446;
105.0000;1.1160;0.9371;
105.3000;1.1193;0.9471;
105.6000;1.1103;0.9169;
105.9000;1.1152;0.9345;
106.2000;1.1160;0.9371;
106.5000;1.1160;0.9396;
106.8000;1.1176;0.9471;
107.1000;1.1152;0.9396;
107.4000;1.1144;0.9371;
107.7000;1.1160;0.9371;
108.0000;1.1168;0.9421;
108.3000;1.1160;0.9371;
108.6000;1.1144;0.9345;
108.9000;1.1152;0.9220;
109.2000;1.1168;0.9220;
109.5000;1.1160;0.9245;
109.8000;1.1176;0.9220;
110.1000;1.1160;0.9245;
110.4000;1.1152;0.9245;
110.7000;1.1152;0.9144;
111.0000;1.1160;0.9270;
111.3000;1.1152;0.9220;
111.6000;1.1127;0.9169;
111.9000;1.1160;0.9345;
112.2000;1.1152;0.9320;
112.5000;1.1144;0.9169;
112.8000;1.1144;0.9194;
113.1000;1.1152;0.9220;
113.4000;1.1160;0.9270;
113.7000;1.1176;0.9371;
114.0000;1.1152;0.9295;
114.3000;1.1144;0.9295;
114.6000;1.1168;0.9295;
114.9000;1.1152;0.9245;
115.2000;1.1160;0.9245;
115.5000;1.1160;0.9220;
115.8000;1.1160;0.9169;
116.1000;1.1168;0.9094;
116.4000;1.1111;0.8968;
116.7000;1.1168;0.9068;
117.0000;1.1168;0.9144;
117.3000;1.1160;0.9169;
117.6000;1.1152;0.9220;
117.9000;1.1160;0.9295;
118.2000;1.1160;0.9320;
118.5000;1.1152;0.9270;
118.8000;1.1136;0.9220;
119.1000;1.1168;0.9194;
119.4000;1.1152;0.9144;
119.7000;1.1168;0.9169;
120.0000;1.1144;0.9094;
120.3000;1.1168;0.9245;
120.6000;1.1160;0.9169;
120.9000;1.1144;0.9169;
121.2000;1.1152;0.9169;
121.5000;1.1152;0.9194;
121.8000;1.1144;0.9220;
122.1000;1.1152;0.9220;
122.4000;1.1144;0.9119;
122.7000;1.1160;0.9068;
123.0000;1.1152;0.9144;
123.3000;1.1152;0.9220;
123.6000;1.1144;0.9220;
123.9000;1.1152;0.9220;
124.2000;1.1168;0.9270;
124.5000;1.1168;0.9371;
124.8000;1.1193;0.9371;
125.1000;1.1168;0.9270;
125.4000;1.1176;0.9320;
125.7000;1.1193;0.9345;
126.0000;1.1184;0.9220;
126.3000;1.1160;0.9245;
126.6000;1.1160;0.9270;
126.9000;1.1160;0.9295;
127.2000;1.1144;0.9220;
127.5000;1.1087;0.9119;
127.8000;1.1144;0.9245;
128.1000;1.1152;0.9270;
128.4000;1.1217;0.9421;
128.7000;1.1160;0.9245;
129.0000;1.1152;0.9295;
129.3000;1.1127;0.9220;
129.6000;1.1233;0.9421;
129.9000;1.1152;0.9144;
130.2000;1.1136;0.9068;
130.5000;1.1144;0.9094;
130.8000;1.1144;0.9094;
131.1000;1.1160;0.9119;
131.4000;1.1160;0.9094;
131.7000;1.1152;0.9194;
132.0000;1.1160;0.9295;
132.3000;1.1176;0.9270;
132.6000;1.1160;0.9194;
132.9000;1.1160;0.9220;
133.2000;1.1152;0.9320;
133.5000;1.1152;0.9421;
133.8000;1.1152;0.9396;
134.1000;1.1160;0.9471;
134.4000;1.1168;0.9497;
134.7000;1.1111;0.9320;
135.0000;1.1160;0.9396;
135.3000;1.1144;0.9295;
135.6000;1.1152;0.9295;
135.9000;1.1176;0.9320;
136.2000;1.1176;0.9295;
136.5000;1.1168;0.9295;
136.8000;1.1152;0.9270;
137.1000;1.1152;0.9295;
137.4000;1.1152;0.9295;
137.7000;1.1160;0.9320;
138.0000;1.1127;0.9245;
138.3000;1.1136;0.9245;
138.6000;1.1168;0.9320;
138.9000;1.1160;0.9220;
139.2000;1.1136;0.9169;
139.5000;1.1136;0.9043;
139.8000;1.1144;0.8993;
140.1000;1.1136;0.8867;
140.4000;1.1144;0.8842;
140.7000;1.1087;0.8691;
141.0000;1.1152;0.8917;
141.3000;1.1152;0.8917;
141.6000;1.1160;0.8917;
141.9000;1.1160;0.8942;
142.2000;1.1160;0.8917;
142.5000;1.1119;0.8867;
142.8000;1.1152;0.9043;
143.1000;1.1144;0.9119;
143.4000;1.1217;0.9345;
143.7000;1.1168;0.9194;
144.0000;1.1152;0.9119;
144.3000;1.1168;0.9119;
144.6000;1.1144;0.9094;
144.9000;1.1168;0.9220;
145.2000;1.1136;0.9094;
145.5000;1.1111;0.9119;
145.8000;1.1127;0.9119;
146.1000;1.1136;0.9295;
146.4000;1.1152;0.9396;
146.7000;1.1152;0.9320;
147.0000;1.1144;0.9295;
147.3000;1.1176;0.9371;
147.6000;1.1160;0.9396;
147.9000;1.1176;0.9396;
148.2000;1.1144;0.9345;
148.5000;1.1160;0.9245;
148.8000;1.1144;0.9194;
149.1000;1.1152;0.9194;
149.4000;1.1144;0.9194;
149.7000;1.1144;0.9245;
150.0000;1.1152;0.9220;
150.3000;1.1144;0.9270;
150.6000;1.1119;0.9320;
150.9000;1.1144;0.9371;
151.2000;1.1160;0.9295;
151.5000;1.1152;0.9270;
151.8000;1.1144;0.9220;
152.1000;1.1184;0.9220;
152.4000;1.1176;0.9094;
152.7000;1.1168;0.9068;
153.0000;1.1160;0.9043;
153.3000;1.1136;0.9068;
153.6000;1.1087;0.8942;
153.9000;1.1152;0.9068;
154.2000;1.1144;0.9094;
154.5000;1.1160;0.9169;
154.8000;1.1152;0.9119;
155.1000;1.1152;0.9220;
155.4000;1.1160;0.9345;
155.7000;1.1152;0.9345;
156.0000;1.1152;0.9270;
156.3000;1.1144;0.9270;
156.6000;1.1111;0.9169;
156.9000;1.1144;0.9345;
157.2000;1.1136;0.9345;
157.5000;1.1127;0.9345;
157.8000;1.1144;0.9371;
158.1000;1.1136;0.9345;
158.4000;1.1087;0.9119;
158.7000;1.1152;0.9220;
159.0000;1.1136;0.9194;
159.3000;1.1144;0.9270;
159.6000;1.1144;0.9270;
159.9000;1.1136;0.9295;
160.2000;1.1152;0.9270;
160.5000;1.1152;0.9270;
160.8000;1.1152;0.9345;
161.1000;1.1119;0.9345;
161.4000;1.1160;0.9446;
161.7000;1.1119;0.9320;
162.0000;1.1144;0.9245;
162.3000;1.1152;0.9194;
162.6000;1.1144;0.9220;
162.9000;1.1160;0.9245;
163.2000;1.1152;0.9245;
163.5000;1.1119;0.9245;
163.8000;1.1144;0.9194;
164.1000;1.1136;0.9245;
164.4000;1.1127;0.9220;
164.7000;1.1136;0.9169;
165.0000;1.1127;0.9144;
165.3000;1.1136;0.9094;
165.6000;1.1127;0.9068;
165.9000;1.1127;0.9094;
166.2000;1.1111;0.9169;
166.5000;1.1119;0.9144;
166.8000;1.1217;0.9345;
167.1000;1.1127;0.9169;
167.4000;1.1136;0.9245;
167.7000;1.1127;0.9220;
168.0000;1.1160;0.9371;
168.3000;1.1136;0.9320;
168.6000;1.1136;0.9320;
168.9000;1.1152;0.9371;
169.2000;1.1152;0.9345;
169.5000;1.1152;0.9371;
169.8000;1.1152;0.9446;
170.1000;1.1144;0.9421;
170.4000;1.1160;0.9345;
170.7000;1.1144;0.9194;
171.0000;1.1144;0.9245;
171.3000;1.1127;0.9320;
171.6000;1.1160;0.9371;
171.9000;1.1144;0.9345;
172.2000;1.1136;0.9396;
172.5000;1.1152;0.9522;
172.8000;1.1152;0.9623;
173.1000;1.1136;0.9648;
173.4000;1.1144;0.9572;
173.7000;1.1127;0.9497;
174.0000;1.1176;0.9623;
174.3000;1.1144;0.9421;
174.6000;1.1119;0.9345;
174.9000;1.1144;0.9446;
175.2000;1.1119;0.9471;
175.5000;1.1152;0.9446;
175.8000;1.1136;0.9371;
176.1000;1.1193;0.9497;
176.4000;1.1217;0.9547;
176.7000;1.1127;0.9421;
177.0000;1.1127;0.9396;
177.3000;1.1127;0.9396;
177.6000;1.1119;0.9396;
177.9000;1.1119;0.9446;
178.2000;1.1144;0.9446;
178.5000;1.1136;0.9371;
178.8000;1.1111;0.9345;
179.1000;1.1144;0.9295;
179.4000;1.1136;0.9245;
179.7000;1.1103;0.9119;
180.0000;1.1127;0.9119;
180.3000;1.1136;0.9194;
180.6000;1.1152;0.9295;
180.9000;1.1144;0.9295;
181.2000;1.1136;0.9220;
181.5000;1.1144;0.9144;
181.8000;1.1136;0.9169;
182.1000;1.1144;0.9119;
182.4000;1.1136;0.9094;
182.7000;1.1144;0.9043;
183.0000;1.1184;0.9194;
183.3000;1.1168;0.9169;
183.6000;1.1152;0.9169;
183.9000;1.1119;0.9094;
184.2000;1.1152;0.9295;
184.5000;1.1144;0.9320;
184.8000;1.1136;0.9320;
185.1000;1.1119;0.9245;
185.4000;1.1111;0.9194;
185.7000;1.1152;0.9270;
186.0000;1.1176;0.9396;
186.3000;1.1136;0.9320;
186.6000;1.1127;0.9320;
186.9000;1.1136;0.9345;
187.2000;1.1136;0.9345;
187.5000;1.1152;0.9396;
187.8000;1.1160;0.9421;
188.1000;1.1119;0.9245;
188.4000;1.1144;0.9245;
188.7000;1.1127;0.9270;
189.0000;1.1136;0.9320;
189.3000;1.1144;0.9320;
189.6000;1.1127;0.9295;
189.9000;1.1136;0.9295;
190.2000;1.1127;0.9320;
190.5000;1.1127;0.9295;
190.8000;1.1136;0.9245;
191.1000;1.1136;0.9194;
191.4000;1.1119;0.9345;
191.7000;1.1127;0.9396;
192.0000;1.1127;0.9371;
192.3000;1.1144;0.9471;
192.6000;1.1119;0.9497;
192.9000;1.1127;0.9547;
193.2000;1.1136;0.9522;
193.5000;1.1136;0.9547;
193.8000;1.1127;0.9572;
194.1000;1.1119;0.9497;
194.4000;1.1127;0.9421;
194.7000;1.1127;0.9471;
195.0000;1.1136;0.9421;
195.3000;1.1144;0.9396;
195.6000;1.1136;0.9446;
195.9000;1.1136;0.9396;
196.2000;1.1160;0.9446;
196.5000;1.1095;0.9245;
196.8000;1.1119;0.9345;
197.1000;1.1144;0.9320;
197.4000;1.1136;0.9371;
197.7000;1.1119;0.9320;
198.0000;1.1127;0.9371;
198.3000;1.1070;0.9245;
198.6000;1.1144;0.9421;
198.9000;1.1144;0.9421;
199.2000;1.1103;0.9371;
199.5000;1.1136;0.9471;
199.8000;1.1144;0.9471;
200.1000;1.1136;0.9421;
200.4000;1.1127;0.9421;
200.7000;1.1144;0.9446;
201.0000;1.1127;0.9320;
201.3000;1.1103;0.9295;
201.6000;1.1119;0.9320;
201.9000;1.1111;0.9371;
202.2000;1.1119;0.9396;
202.5000;1.1136;0.9421;
202.8000;1.1201;0.9547;
203.1000;1.1111;0.9320;
203.4000;1.1119;0.9371;
203.7000;1.1144;0.9421;
204.0000;1.1144;0.9371;
204.3000;1.1136;0.9245;
204.6000;1.1119;0.9220;
204.9000;1.1152;0.9295;
205.2000;1.1168;0.9245;
205.5000;1.1136;0.9169;
205.8000;1.1144;0.9220;
206.1000;1.1103;0.9169;
206.4000;1.1152;0.9220;
206.7000;1.1111;0.9194;
207.0000;1.1136;0.9194;
207.3000;1.1119;0.9169;
207.6000;1.1144;0.9270;
207.9000;1.1184;0.9371;
208.2000;1.1136;0.9320;
208.5000;1.1119;0.9270;
208.8000;1.1079;0.9245;
209.1000;1.1144;0.9471;
209.4000;1.1119;0.9547;
209.7000;1.1127;0.9471;
210.0000;1.1144;0.9522;
210.3000;1.1136;0.9497;
210.6000;1.1119;0.9547;
210.9000;1.1144;0.9623;
211.2000;1.1111;0.9522;
211.5000;1.1119;0.9572;
211.8000;1.1095;0.9446;
212.1000;1.1119;0.9471;
212.4000;1.1119;0.9471;
212.7000;1.1111;0.9471;
213.0000;1.1095;0.9345;
213.3000;1.1119;0.9295;
213.6000;1.1119;0.9245;
213.9000;1.1127;0.9270;
214.2000;1.1119;0.9345;
214.5000;1.1119;0.9345;
214.8000;1.1119;0.9446;
215.1000;1.1127;0.9497;
215.4000;1.1119;0.9446;
215.7000;1.1136;0.9446;
216.0000;1.1127;0.9371;
216.3000;1.1136;0.9471;
216.6000;1.1144;0.9446;
216.9000;1.1136;0.9446;
217.2000;1.1136;0.9396;
217.5000;1.1119;0.9320;
217.8000;1.1136;0.9345;
218.1000;1.1127;0.9295;
218.4000;1.1152;0.9371;
218.7000;1.1127;0.9320;
219.0000;1.1136;0.9371;
219.3000;1.1176;0.9497;
219.6000;1.1079;0.9245;
219.9000;1.1127;0.9245;
220.2000;1.1160;0.9220;
220.5000;1.1168;0.9320;
220.8000;1.1160;0.9270;
221.1000;1.1127;0.9245;
221.4000;1.1160;0.9245;
221.7000;1.1136;0.9245;
222.0000;1.1119;0.9245;
222.3000;1.1152;0.9320;
222.6000;1.1119;0.9320;
222.9000;1.1111;0.9345;
223.2000;1.1127;0.9421;
223.5000;1.1111;0.9345;
223.8000;1.1127;0.9345;
224.1000;1.1144;0.9446;
224.4000;1.1160;0.9522;
224.7000;1.1127;0.9497;
225.0000;1.1136;0.9471;
225.3000;1.1201;0.9623;
225.6000;1.1127;0.9471;
225.9000;1.1119;0.9446;
226.2000;1.1136;0.9572;
226.5000;1.1127;0.9471;
226.8000;1.1144;0.9522;
227.1000;1.1127;0.9522;
227.4000;1.1127;0.9572;
227.7000;1.1070;0.9471;
228.0000;1.1127;0.9572;
228.3000;1.1079;0.9497;
228.6000;1.1111;0.9572;
228.9000;1.1095;0.9572;
229.2000;1.1127;0.9597;
229.5000;1.1119;0.9597;
229.8000;1.1119;0.9572;
230.1000;1.1119;0.9547;
230.4000;1.1144;0.9547;
230.7000;1.1119;0.9446;
231.0000;1.1119;0.9446;
231.3000;1.1136;0.9396;
231.6000;1.1144;0.9396;
231.9000;1.1119;0.9320;
232.2000;1.1119;0.9345;
232.5000;1.1119;0.9295;
232.8000;1.1087;0.9220;
233.1000;1.1144;0.9421;
233.4000;1.1111;0.9396;
233.7000;1.1095;0.9396;
234.0000;1.1111;0.9371;
234.3000;1.1168;0.9497;
234.6000;1.1119;0.9471;
234.9000;1.1103;0.9497;
235.2000;1.1111;0.9471;
235.5000;1.1103;0.9446;
235.8000;1.1095;0.9295;
236.1000;1.1119;0.9371;
236.4000;1.1111;0.9295;
236.7000;1.1046;0.9169;
237.0000;1.1127;0.9421;
237.3000;1.1160;0.9446;
237.6000;1.1160;0.9371;
237.9000;1.1111;0.9295;
238.2000;1.1111;0.9295;
238.5000;1.1144;0.9320;
238.8000;1.1119;0.9194;
239.1000;1.1136;0.9371;
239.4000;1.1127;0.9446;
239.7000;1.1144;0.9522;
240.0000;1.1136;0.9547;
240.3000;1.1103;0.9572;
240.6000;1.1111;0.9597;
240.9000;1.1144;0.9648;
241.2000;1.1111;0.9547;
241.5000;1.1119;0.9522;
241.8000;1.1127;0.9522;
242.1000;1.1127;0.9522;
242.4000;1.1127;0.9572;
242.7000;1.1119;0.9572;
243.0000;1.1136;0.9623;
243.3000;1.1054;0.9371;
243.6000;1.1095;0.9547;
243.9000;1.1111;0.9572;
244.2000;1.1127;0.9623;
244.5000;1.1095;0.9497;
244.8000;1.1127;0.9648;
245.1000;1.1127;0.9597;
245.4000;1.1095;0.9522;
245.7000;1.1087;0.9497;
246.0000;1.1136;0.9572;
246.3000;1.1127;0.9522;
246.6000;1.1087;0.9471;
246.9000;1.1119;0.9497;
247.2000;1.1136;0.9446;
247.5000;1.1119;0.9446;
247.8000;1.1127;0.9522;
248.1000;1.1119;0.9623;
248.4000;1.1127;0.9648;
248.7000;1.1119;0.9547;
249.0000;1.1119;0.9547;
249.3000;1.1136;0.9522;
249.6000;1.1136;0.9471;
249.9000;1.1111;0.9446;
250.2000;1.1111;0.9396;
250.5000;1.1119;0.9421;
250.8000;1.1127;0.9446;
251.1000;1.1127;0.9497;
251.4000;1.1111;0.9471;
251.7000;1.1127;0.9371;
252.0000;1.1127;0.9295;
252.3000;1.1119;0.9220;
252.6000;1.1046;0.9119;
252.9000;1.1127;0.9320;
253.2000;1.1136;0.9345;
253.5000;1.1119;0.9345;
253.8000;1.1136;0.9421;
254.1000;1.1111;0.9421;
254.4000;1.1127;0.9421;
254.7000;1.1119;0.9371;
255.0000;1.1136;0.9421;
255.3000;1.1144;0.9396;
255.6000;1.1127;0.9345;
255.9000;1.1127;0.9371;
256.2000;1.1038;0.9119;
256.5000;1.1119;0.9295;
256.8000;1.1103;0.9144;
257.1000;1.1111;0.9144;
257.4000;1.1111;0.9119;
257.7000;1.1103;0.9169;
258.0000;1.1111;0.9194;
258.3000;1.1127;0.9169;
258.6000;1.1127;0.9144;
258.9000;1.1136;0.9245;
259.2000;1.1111;0.9169;
259.5000;1.1119;0.9245;
259.8000;1.1087;0.9094;
260.1000;1.1127;0.9270;
260.4000;1.1111;0.9169;
260.7000;1.1111;0.9169;
261.0000;1.1127;0.9245;
261.3000;1.1127;0.9220;
261.6000;1.1111;0.9220;
261.9000;1.1095;0.9094;
262.2000;1.1127;0.9169;
262.5000;1.1136;0.9220;
262.8000;1.1103;0.9220;
263.1000;1.1119;0.9270;
263.4000;1.1136;0.9320;
263.7000;1.1136;0.9295;
264.0000;1.1136;0.9295;
264.3000;1.1127;0.9295;
264.6000;1.1136;0.9320;
264.9000;1.1152;0.9371;
265.2000;1.1144;0.9421;
265.5000;1.1111;0.9371;
265.8000;1.1119;0.9396;
266.1000;1.1127;0.9446;
266.4000;1.1136;0.9421;
266.7000;1.1111;0.9320;
267.0000;1.1111;0.9220;
267.3000;1.1111;0.9245;
267.6000;1.1111;0.9270;
267.9000;1.1119;0.9220;
268.2000;1.1119;0.9169;
268.5000;1.1136;0.9270;
268.8000;1.1127;0.9295;
269.1000;1.1127;0.9320;
269.4000;1.1119;0.9295;
269.7000;1.1119;0.9345;
270.0000;1.1119;0.9345;
270.3000;1.1127;0.9295;
270.6000;1.1127;0.9270;
270.9000;1.1119;0.9245;
271.2000;1.1111;0.9068;
271.5000;1.1127;0.9068;
271.8000;1.1119;0.9018;
272.1000;1.1103;0.9018;
272.4000;1.1111;0.9094;
272.7000;1.1168;0.9220;
273.0000;1.1103;0.9094;
273.3000;1.1119;0.9144;
273.6000;1.1111;0.9169;
273.9000;1.1111;0.9220;
274.2000;1.1111;0.9345;
274.5000;1.1095;0.9345;
274.8000;1.1087;0.9270;
275.1000;1.1119;0.9421;
275.4000;1.1127;0.9471;
275.7000;1.1054;0.9295;
276.0000;1.1127;0.9345;
276.3000;1.1111;0.9320;
276.6000;1.1111;0.9345;
276.9000;1.1103;0.9320;
277.2000;1.1111;0.9345;
277.5000;1.1136;0.9371;
277.8000;1.1103;0.9345;
278.1000;1.1103;0.9345;
278.4000;1.1087;0.9295;
278.7000;1.1111;0.9270;
279.0000;1.1119;0.9220;
279.3000;1.1119;0.9295;
279.6000;1.1119;0.9245;
279.9000;1.1119;0.9194;
280.2000;1.1119;0.9144;
280.5000;1.1193;0.9295;
280.8000;1.1103;0.9144;
281.1000;1.1111;0.9169;
281.4000;1.1119;0.9119;
281.7000;1.1119;0.9245;
282.0000;1.1111;0.9270;
282.3000;1.1136;0.9220;
282.6000;1.1127;0.9194;
282.9000;1.1136;0.9169;
283.2000;1.1127;0.9144;
283.5000;1.1119;0.9169;
283.8000;1.1119;0.9270;
284.1000;1.1127;0.9320;
284.4000;1.1168;0.9497;
284.7000;1.1119;0.9320;
285.0000;1.1119;0.9220;
285.3000;1.1119;0.9220;
285.6000;1.1119;0.9194;
285.9000;1.1103;0.9270;
286.2000;1.1111;0.9270;
286.5000;1.1119;0.9245;
286.8000;1.1127;0.9194;
287.1000;1.1152;0.9270;
287.4000;1.1127;0.9270;
287.7000;1.1119;0.9270;
288.0000;1.1119;0.9245;
288.3000;1.1079;0.9119;
288.6000;1.1144;0.9270;
288.9000;1.1111;0.9169;
289.2000;1.1119;0.9220;
289.5000;1.1103;0.9194;
289.8000;1.1111;0.9119;
290.1000;1.1111;0.9119;
290.4000;1.1103;0.9094;
290.7000;1.1111;0.9043;
291.0000;1.1095;0.9068;
291.3000;1.1119;0.9169;
291.6000;1.1087;0.9119;
291.9000;1.1111;0.9194;
292.2000;1.1111;0.9094;
292.5000;1.1087;0.8993;
292.8000;1.1111;0.9043;
293.1000;1.1103;0.9068;
293.4000;1.1127;0.9144;
293.7000;1.1079;0.8942;
294.0000;1.1095;0.9043;
294.3000;1.1095;0.9043;
294.6000;1.1087;0.9018;
294.9000;1.1111;0.9144;
295.2000;1.1095;0.9144;
295.5000;1.1119;0.9194;
295.8000;1.1119;0.9119;
296.1000;1.1103;0.9043;
296.4000;1.1127;0.9144;
296.7000;1.1144;0.9220;
297.0000;1.1119;0.9220;
297.3000;1.1136;0.9245;
297.6000;1.1103;0.9144;
297.9000;1.1119;0.9194;
298.2000;1.1119;0.9270;
298.5000;1.1111;0.9169;
298.8000;1.1119;0.9119;
299.1000;1.1062;0.9043;
299.4000;1.1095;0.9169;
299.7000;1.1119;0.9194;
300.0000;1.1103;0.9169;
300.3000;1.1111;0.9169;
300.6000;1.1111;0.9119;
300.9000;1.1119;0.9169;
301.2000;1.1103;0.9169;
301.5000;1.1111;0.9169;
301.8000;1.1046;0.8968;
302.1000;1.1111;0.9068;
302.4000;1.1111;0.9144;
302.7000;1.1127;0.9220;
303.0000;1.1087;0.9144;
303.3000;1.1111;0.9169;
303.6000;1.1119;0.9144;
303.9000;1.1119;0.9094;
304.2000;1.1103;0.9169;
304.5000;1.1103;0.9194;
304.8000;1.1119;0.9144;
305.1000;1.1103;0.9119;
305.4000;1.1087;0.8968;
305.7000;1.1111;0.8993;
306.0000;1.1095;0.8942;
306.3000;1.1070;0.8867;
306.6000;1.1119;0.9043;
306.9000;1.1095;0.9119;
307.2000;1.1103;0.9169;
307.5000;1.1119;0.9144;
307.8000;1.1103;0.9144;
308.1000;1.1103;0.9119;
308.4000;1.1119;0.9245;
308.7000;1.1095;0.9119;
309.0000;1.1087;0.9094;
309.3000;1.1111;0.9068;
309.6000;1.1160;0.9169;
309.9000;1.1103;0.9043;
310.2000;1.1103;0.9144;
310.5000;1.1103;0.9144;
310.8000;1.1111;0.9119;
311.1000;1.1111;0.8993;
311.4000;1.1095;0.8942;
311.7000;1.1136;0.8968;
312.0000;1.1095;0.8917;
312.3000;1.1127;0.8993;
312.6000;1.1184;0.9194;
312.9000;1.1103;0.9068;
313.2000;1.1119;0.9119;
313.5000;1.1136;0.9194;
313.8000;1.1111;0.9094;
314.1000;1.1103;0.9094;
314.4000;1.1054;0.9094;
314.7000;1.1030;0.9068;
315.0000;1.1111;0.9320;
315.3000;1.1176;0.9446;
315.6000;1.1095;0.9119;
315.9000;1.1103;0.9119;
316.2000;1.1111;0.9068;
316.5000;1.1119;0.9068;
316.8000;1.1111;0.9043;
317.1000;1.1127;0.9119;
317.4000;1.1111;0.9119;
317.7000;1.1119;0.9094;
318.0000;1.1111;0.9119;
318.3000;1.1095;0.9119;
318.6000;1.1127;0.9144;
318.9000;1.1103;0.9068;
319.2000;1.1103;0.9119;
319.5000;1.1119;0.9220;
319.8000;1.1111;0.9119;
320.1000;1.1095;0.9043;
320.4000;1.1103;0.8993;
320.7000;1.1095;0.8993;
321.0000;1.1119;0.9144;
321.3000;1.1119;0.9245;
321.6000;1.1111;0.9245;
321.9000;1.1103;0.9295;
322.2000;1.1144;0.9295;
322.5000;1.1111;0.9194;
322.8000;1.1103;0.9220;
323.1000;1.1168;0.9345;
323.4000;1.1103;0.9194;
323.7000;1.1070;0.9068;
324.0000;1.1144;0.9270;
324.3000;1.1095;0.9194;
324.6000;1.1087;0.9245;
324.9000;1.1111;0.9295;
325.2000;1.1111;0.9295;
325.5000;1.1111;0.9194;
325.8000;1.1095;0.9194;
326.1000;1.1119;0.9245;
326.4000;1.1136;0.9371;
326.7000;1.1095;0.9295;
327.0000;1.1087;0.9220;
327.3000;1.1095;0.9245;
327.6000;1.1136;0.9245;
327.9000;1.1103;0.9169;
328.2000;1.1119;0.9295;
328.5000;1.1095;0.9119;
328.8000;1.1103;0.9245;
329.1000;1.1127;0.9371;
329.4000;1.1111;0.9320;
329.7000;1.1079;0.9169;
330.0000;1.1095;0.9194;
330.3000;1.1111;0.9220;
330.6000;1.1111;0.9270;
330.9000;1.1103;0.9270;
331.2000;1.1136;0.9245;
331.5000;1.1103;0.9169;
331.8000;1.1144;0.9245;
332.1000;1.1087;0.9119;
332.4000;1.1103;0.9220;
332.7000;1.1119;0.9245;
333.0000;1.1103;0.9295;
333.3000;1.1070;0.9295;
333.6000;1.1079;0.9320;
333.9000;1.1119;0.9320;
334.2000;1.1111;0.9245;
334.5000;1.1070;0.9144;
334.8000;1.1103;0.9270;
335.1000;1.1144;0.9295;
335.4000;1.1119;0.9295;
335.7000;1.1136;0.9345;
336.0000;1.1119;0.9320;
336.3000;1.1127;0.9396;
336.6000;1.1136;0.9396;
336.9000;1.1111;0.9295;
337.2000;1.1119;0.9220;
337.5000;1.1103;0.9144;
337.8000;1.1103;0.9094;
338.1000;1.1119;0.9220;
338.4000;1.1070;0.9094;
338.7000;1.1168;0.9371;
339.0000;1.1103;0.9169;
339.3000;1.1046;0.9018;
339.6000;1.1095;0.9169;
339.9000;1.1095;0.9144;
340.2000;1.1111;0.9169;
340.5000;1.1095;0.9144;
340.8000;1.1111;0.9270;
341.1000;1.1152;0.9396;
341.4000;1.1111;0.9320;
341.7000;1.1103;0.9446;
342.0000;1.1103;0.9345;
342.3000;1.1095;0.9371;
342.6000;1.1103;0.9371;
342.9000;1.1111;0.9371;
343.2000;1.1095;0.9270;
343.5000;1.1103;0.9194;
343.8000;1.1103;0.9144;
344.1000;1.1111;0.9144;
344.4000;1.1087;0.9194;
344.7000;1.1087;0.9194;
345.0000;1.1144;0.9320;
345.3000;1.1103;0.9194;
345.6000;1.1119;0.9144;
345.9000;1.1103;0.9144;
346.2000;1.1111;0.9169;
346.5000;1.1095;0.9194;
346.8000;1.1103;0.9194;
347.1000;1.1111;0.9144;
347.4000;1.1095;0.9194;
347.7000;1.1103;0.9245;
348.0000;1.1111;0.9345;
348.3000;1.1103;0.9270;
348.6000;1.1103;0.9295;
348.9000;1.1103;0.9320;
349.2000;1.1103;0.9345;
349.5000;1.1111;0.9396;
349.8000;1.1103;0.9371;
350.1000;1.1095;0.9371;
350.4000;1.1095;0.9345;
350.7000;1.1087;0.9320;
351.0000;1.1103;0.9421;
351.3000;1.1054;0.9245;
351.6000;1.1136;0.9497;
351.9000;1.1127;0.9522;
352.2000;1.1079;0.9320;
352.5000;1.1111;0.9345;
352.8000;1.1119;0.9320;
353.1000;1.1062;0.9295;
353.4000;1.1054;0.9245;
353.7000;1.1095;0.9446;
354.0000;1.1103;0.9446;
354.3000;1.1062;0.9295;
354.6000;1.1087;0.9320;
354.9000;1.1095;0.9270;
355.2000;1.1095;0.9270;
355.5000;1.1103;0.9270;
355.8000;1.1111;0.9345;
356.1000;1.1111;0.9320;
356.4000;1.1087;0.9245;
356.7000;1.1087;0.9194;
357.0000;1.1103;0.9169;
357.3000;1.1119;0.9270;
357.6000;1.1095;0.9094;
357.9000;1.1111;0.9194;
358.2000;1.1119;0.9169;
358.5000;1.1103;0.9270;
358.8000;1.1103;0.9270;
359.1000;1.1095;0.9270;
359.4000;1.1103;0.9245;
359.7000;1.1103;0.9245;
360.0000;1.1103;0.9194;
360.3000;1.1087;0.9295;
360.6000;1.1062;0.9270;
360.9000;1.1087;0.9345;
361.2000;1.1070;0.9396;
361.5000;1.1046;0.9371;
361.8000;1.1095;0.9522;
362.1000;1.1087;0.9547;
362.4000;1.1111;0.9572;
362.7000;1.1054;0.9396;
363.0000;1.1103;0.9522;
363.3000;1.1111;0.9497;
363.6000;1.1079;0.9471;
363.9000;1.1087;0.9421;
364.2000;1.1079;0.9471;
364.5000;1.1111;0.9522;
364.8000;1.1103;0.9446;
365.1000;1.1095;0.9371;
365.4000;1.1095;0.9345;
365.7000;1.1176;0.9572;
366.0000;1.1095;0.9320;
366.3000;1.1095;0.9270;
366.6000;1.1127;0.9320;
366.9000;1.1119;0.9270;
367.2000;1.1095;0.9270;
367.5000;1.1095;0.9270;
367.8000;1.1079;0.9270;
368.1000;1.1103;0.9270;
368.4000;1.1095;0.9220;
368.7000;1.1095;0.9169;
369.0000;1.1079;0.9169;
369.3000;1.1087;0.9270;
369.6000;1.1119;0.9371;
369.9000;1.1095;0.9270;
370.2000;1.1095;0.9245;
370.5000;1.1103;0.9371;
370.8000;1.1103;0.9396;
371.1000;1.1111;0.9371;
371.4000;1.1087;0.9345;
371.7000;1.1111;0.9522;
372.0000;1.1103;0.9547;
372.3000;1.1111;0.9522;
372.6000;1.1079;0.9446;
372.9000;1.1111;0.9421;
373.2000;1.1103;0.9345;
373.5000;1.1111;0.9396;
373.8000;1.1144;0.9522;
374.1000;1.1111;0.9421;
374.4000;1.1127;0.9471;
374.7000;1.1119;0.9345;
375.0000;1.1111;0.9320;
375.3000;1.1054;0.9245;
375.6000;1.1095;0.9345;
375.9000;1.1111;0.9270;
376.2000;1.0989;0.9043;
376.5000;1.1111;0.9295;
376.8000;1.1062;0.9144;
377.1000;1.1087;0.9245;
377.4000;1.1144;0.9396;
377.7000;1.1095;0.9371;
378.0000;1.1103;0.9345;
378.3000;1.1111;0.9295;
378.6000;1.1087;0.9245;
378.9000;1.1095;0.9396;
379.2000;1.1103;0.9320;
379.5000;1.1095;0.9345;
379.8000;1.1103;0.9371;
380.1000;1.1111;0.9320;
380.4000;1.1087;0.9320;
380.7000;1.1111;0.9270;
381.0000;1.1103;0.9220;
381.3000;1.1087;0.9194;
381.6000;1.1046;0.9194;
381.9000;1.1079;0.9194;
382.2000;1.1095;0.9144;
382.5000;1.1176;0.9396;
382.8000;1.1103;0.9270;
383.1000;1.1095;0.9169;
383.4000;1.1095;0.9144;
383.7000;1.1087;0.9094;
384.0000;1.1103;0.9043;
384.3000;1.1111;0.9068;
384.6000;1.1046;0.8968;
384.9000;1.1119;0.9144;
385.2000;1.1136;0.9194;
385.5000;1.1111;0.9169;
385.8000;1.1103;0.9270;
386.1000;1.1111;0.9396;
386.4000;1.1119;0.9421;
386.7000;1.1095;0.9320;
387.0000;1.1103;0.9220;
387.3000;1.1095;0.9144;
387.6000;1.1103;0.9169;
387.9000;1.1103;0.9220;
388.2000;1.1095;0.9345;
388.5000;1.1103;0.9421;
388.8000;1.1111;0.9396;
389.1000;1.1111;0.9446;
389.4000;1.1119;0.9446;
389.7000;1.1111;0.9396;
390.0000;1.1111;0.9396;
390.3000;1.1103;0.9421;
390.6000;1.1103;0.9345;
390.9000;1.1103;0.9497;
391.2000;1.1111;0.9446;
391.5000;1.1103;0.9446;
391.8000;1.1119;0.9471;
392.1000;1.1095;0.9421;
392.4000;1.1095;0.9396;
392.7000;1.1111;0.9446;
393.0000;1.1111;0.9421;
393.3000;1.1119;0.9396;
393.6000;1.1095;0.9320;
393.9000;1.1111;0.9371;
394.2000;1.1103;0.9421;
394.5000;1.1111;0.9345;
394.8000;1.1095;0.9220;
395.1000;1.1103;0.9245;
395.4000;1.1103;0.9194;
395.7000;1.1095;0.9119;
396.0000;1.1103;0.9220;
396.3000;1.1103;0.9270;
396.6000;1.1103;0.9345;
396.9000;1.1095;0.9295;
397.2000;1.1095;0.9320;
397.5000;1.1103;0.9295;
397.8000;1.1111;0.9371;
398.1000;1.1095;0.9245;
398.4000;1.1127;0.9270;
398.7000;1.1103;0.9144;
399.0000;1.1111;0.9169;
399.3000;1.1087;0.9119;
399.6000;1.1103;0.9169;
399.9000;1.1095;0.9169;
400.2000;1.1111;0.9220;
400.5000;1.1103;0.9270;
400.8000;1.1095;0.9220;
401.1000;1.1087;0.9220;
401.4000;1.1160;0.9320;
401.7000;1.1030;0.8993;
402.0000;1.1087;0.9144;
402.3000;1.1095;0.9144;
402.6000;1.1095;0.9169;
402.9000;1.1095;0.9220;
403.2000;1.1087;0.9194;
403.5000;1.1079;0.9245;
403.8000;1.1095;0.9295;
404.1000;1.1111;0.9295;
404.4000;1.1087;0.9295;
404.7000;1.1103;0.9320;
405.0000;1.1095;0.9270;
405.3000;1.1095;0.9345;
405.6000;1.1103;0.9295;
405.9000;1.1087;0.9194;
406.2000;1.1087;0.9194;
406.5000;1.1103;0.9245;
406.8000;1.1087;0.9295;
407.1000;1.1087;0.9245;
407.4000;1.1087;0.9270;
407.7000;1.1095;0.9194;
408.0000;1.1095;0.9194;
408.3000;1.1119;0.9270;
408.6000;1.1087;0.9270;
408.9000;1.1111;0.9295;
409.2000;1.1087;0.9245;
409.5000;1.1087;0.9220;
409.8000;1.1119;0.9194;
410.1000;1.1087;0.9144;
410.4000;1.1103;0.9245;
410.7000;1.1103;0.9270;
411.0000;1.1087;0.9220;
411.3000;1.1095;0.9295;
411.6000;1.1095;0.9320;
411.9000;1.1087;0.9270;
412.2000;1.1095;0.9245;
412.5000;1.1103;0.9295;
412.8000;1.1038;0.9169;
413.1000;1.1087;0.9295;
413.4000;1.1087;0.9270;
413.7000;1.1095;0.9345;
414.0000;1.1119;0.9396;
414.3000;1.1103;0.9371;
414.6000;1.1087;0.9345;
414.9000;1.1160;0.9597;
415.2000;1.1087;0.9345;
415.5000;1.1095;0.9270;
415.8000;1.1079;0.9245;
416.1000;1.1070;0.9345;
416.4000;1.1095;0.9396;
416.7000;1.1103;0.9497;
417.0000;1.1095;0.9497;
417.3000;1.1087;0.9522;
417.6000;1.1079;0.9547;
417.9000;1.1111;0.9547;
418.2000;1.1111;0.9497;
418.5000;1.1103;0.9522;
418.8000;1.1087;0.9497;
419.1000;1.1103;0.9597;
419.4000;1.1095;0.9572;
419.7000;1.1103;0.9623;
420.0000;1.1087;0.9572;
420.3000;1.1079;0.9547;
420.6000;1.1079;0.9522;
420.9000;1.1087;0.9497;
421.2000;1.1087;0.9396;
421.5000;1.1087;0.9446;
421.8000;1.1095;0.9471;
422.1000;1.1087;0.9446;
422.4000;1.1087;0.9396;
422.7000;1.1087;0.9396;
423.0000;1.1087;0.9421;
423.3000;1.1119;0.9471;
423.6000;1.1079;0.9371;
423.9000;1.1046;0.9371;
424.2000;1.1087;0.9446;
424.5000;1.1095;0.9421;
424.8000;1.1095;0.9421;
425.1000;1.1095;0.9396;
425.4000;1.1103;0.9371;
425.7000;1.1095;0.9345;
426.0000;1.1087;0.9245;
426.3000;1.1070;0.9119;
426.6000;1.1062;0.9068;
426.9000;1.1087;0.9169;
427.2000;1.1087;0.9094;
427.5000;1.1095;0.9043;
427.8000;1.1079;0.8968;
428.1000;1.1070;0.9018;
428.4000;1.1087;0.9043;
428.7000;1.1111;0.9119;
429.0000;1.1079;0.9094;
429.3000;1.1070;0.9094;
429.6000;1.1095;0.9119;
429.9000;1.1087;0.9094;
430.2000;1.1079;0.9043;
430.5000;1.1095;0.9018;
430.8000;1.1103;0.9144;
431.1000;1.1087;0.9094;
431.4000;1.1087;0.9068;
431.7000;1.1095;0.9194;
432.0000;1.1152;0.9320;
432.3000;1.1070;0.9169;
432.6000;1.1079;0.9119;
432.9000;1.1070;0.9043;
433.2000;1.1087;0.9018;
433.5000;1.1087;0.9043;
433.8000;1.1087;0.9119;
434.1000;1.1030;0.9068;
434.4000;1.1095;0.9220;
434.7000;1.1070;0.9194;
435.0000;1.1079;0.9245;
435.3000;1.1095;0.9270;
435.6000;1.1079;0.9245;
435.9000;1.1079;0.9345;
436.2000;1.1079;0.9320;
436.5000;1.1087;0.9320;
436.8000;1.1079;0.9345;
437.1000;1.1095;0.9396;
437.4000;1.1087;0.9421;
437.7000;1.1095;0.9446;
438.0000;1.1087;0.9345;
438.3000;1.1046;0.9245;
438.6000;1.1087;0.9396;
438.9000;1.1095;0.9446;
439.2000;1.1111;0.9497;
439.5000;1.1136;0.9572;
439.8000;1.1119;0.9522;
440.1000;1.1079;0.9547;
440.4000;1.1103;0.9497;
440.7000;1.1087;0.9497;
441.0000;1.1095;0.9522;
441.3000;1.1087;0.9446;
441.6000;1.1062;0.9396;
441.9000;1.1087;0.9371;
442.2000;1.1087;0.9371;
442.5000;1.1111;0.9446;
442.8000;1.1079;0.9421;
443.1000;1.1087;0.9345;
443.4000;1.1062;0.9295;
443.7000;1.1103;0.9371;
444.0000;1.1103;0.9270;
444.3000;1.1087;0.9169;
444.6000;1.1079;0.9194;
444.9000;1.1095;0.9371;
445.2000;1.1103;0.9320;
445.5000;1.1087;0.9194;
445.8000;1.1079;0.9144;
446.1000;1.1087;0.9220;
446.4000;1.1038;0.9119;
446.7000;1.1095;0.9295;
447.0000;1.1095;0.9245;
447.3000;1.1168;0.9320;
447.6000;1.1062;0.9068;
447.9000;1.1160;0.9270;
448.2000;1.1111;0.9220;
448.5000;1.1087;0.9119;
448.8000;1.1103;0.9144;
449.1000;1.1079;0.9094;
449.4000;1.1079;0.9169;
449.7000;1.1103;0.9320;
450.0000;1.1087;0.9345;
450.3000;1.1095;0.9371;
450.6000;1.1062;0.9421;
450.9000;1.1070;0.9497;
451.2000;1.1070;0.9446;
451.5000;1.1079;0.9421;
451.8000;1.1079;0.9320;
452.1000;1.1062;0.9295;
452.4000;1.1095;0.9396;
452.7000;1.1119;0.9471;
453.0000;1.1103;0.9421;
453.3000;1.1062;0.9345;
453.6000;1.1095;0.9371;
453.9000;1.1095;0.9421;
454.2000;1.1087;0.9446;
454.5000;1.1079;0.9522;
454.8000;1.1103;0.9497;
455.1000;1.1095;0.9471;
455.4000;1.1103;0.9421;
455.7000;1.1103;0.9396;
456.0000;1.1103;0.9396;
456.3000;1.1095;0.9345;
456.6000;1.1087;0.9320;
456.9000;1.1079;0.9220;
457.2000;1.1079;0.9245;
457.5000;1.1144;0.9497;
457.8000;1.1087;0.9396;
458.1000;1.1103;0.9371;
458.4000;1.1070;0.9220;
458.7000;1.1079;0.9270;
459.0000;1.1119;0.9371;
459.3000;1.1111;0.9270;
459.6000;1.1087;0.9270;
459.9000;1.1079;0.9421;
460.2000;1.1095;0.9421;
460.5000;1.1062;0.9295;
460.8000;1.1103;0.9421;
461.1000;1.1087;0.9345;
461.4000;1.1095;0.9295;
461.7000;1.1087;0.9220;
462.0000;1.1095;0.9169;
462.3000;1.1054;0.9119;
462.6000;1.1070;0.9194;
462.9000;1.1136;0.9371;
463.2000;1.1062;0.9119;
463.5000;1.1095;0.9194;
463.8000;1.1062;0.9169;
464.1000;1.1079;0.9245;
464.4000;1.1079;0.9169;
464.7000;1.1070;0.9194;
465.0000;1.1079;0.9245;
465.3000;1.1054;0.9119;
465.6000;1.1070;0.9144;
465.9000;1.1070;0.9144;
466.2000;1.1095;0.9144;
466.5000;1.1079;0.9068;
466.8000;1.1062;0.9094;
467.1000;1.1087;0.9194;
467.4000;1.1070;0.9094;
467.7000;1.1046;0.8942;
468.0000;1.1095;0.8993;
468.3000;1.1087;0.9043;
468.6000;1.1087;0.9068;
468.9000;1.1054;0.9068;
469.2000;1.1079;0.9144;
469.5000;1.1079;0.9144;
469.8000;1.1046;0.9068;
470.1000;1.1095;0.9220;
470.4000;1.1062;0.9169;
470.7000;1.1038;0.9119;
471.0000;1.1087;0.9220;
471.3000;1.1070;0.9169;
471.6000;1.1062;0.9068;
471.9000;1.1087;0.9119;
472.2000;1.1070;0.9144;
472.5000;1.1087;0.9270;
472.8000;1.1095;0.9371;
473.1000;1.1095;0.9320;
473.4000;1.1062;0.9245;
473.7000;1.1070;0.9245;
474.0000;1.1079;0.9194;
474.3000;1.1070;0.9320;
474.6000;1.1070;0.9295;
474.9000;1.1079;0.9345;
475.2000;1.1087;0.9396;
475.5000;1.1070;0.9522;
475.8000;1.1070;0.9371;
476.1000;1.1087;0.9320;
476.4000;1.1103;0.9295;
476.7000;1.1095;0.9295;
477.0000;1.1095;0.9295;
477.3000;1.1087;0.9295;
477.6000;1.1087;0.9270;
477.9000;1.1103;0.9295;
478.2000;1.1087;0.9220;
478.5000;1.1005;0.9068;
478.8000;1.1070;0.9295;
479.1000;1.1054;0.9270;
479.4000;1.1087;0.9295;
479.7000;1.1087;0.9320;
480.0000;1.1087;0.9371;
480.3000;1.1095;0.9471;
480.6000;1.1079;0.9497;
480.9000;1.1087;0.9497;
481.2000;1.1079;0.9446;
481.5000;1.1087;0.9371;
481.8000;1.1079;0.9371;
482.1000;1.1095;0.9345;
482.4000;1.1070;0.9245;
482.7000;1.1070;0.9169;
483.0000;1.1070;0.9245;
483.3000;1.1095;0.9270;
483.6000;1.1111;0.9270;
483.9000;1.1087;0.9270;
484.2000;1.1079;0.9270;
484.5000;1.1054;0.9270;
484.8000;1.1046;0.9345;
485.1000;1.1038;0.9320;
485.4000;1.1087;0.9396;
485.7000;1.1095;0.9320;
486.0000;1.1079;0.9345;
486.3000;1.1046;0.9345;
486.6000;1.1152;0.9597;
486.9000;1.1103;0.9522;
487.2000;1.1087;0.9547;
487.5000;1.1079;0.9497;
487.8000;1.1087;0.9446;
488.1000;1.1079;0.9371;
488.4000;1.1087;0.9421;
488.7000;1.1079;0.9371;
489.0000;1.1079;0.9371;
489.3000;1.1005;0.9220;
489.6000;1.1046;0.9396;
489.9000;1.1087;0.9522;
490.2000;1.1079;0.9497;
490.5000;1.1087;0.9471;
490.8000;1.1103;0.9446;
491.1000;1.1079;0.9320;
491.4000;1.1111;0.9421;
491.7000;1.1079;0.9320;
492.0000;1.1103;0.9446;
492.3000;1.1144;0.9623;
492.6000;1.1079;0.9522;
492.9000;1.1079;0.9572;
493.2000;1.1095;0.9648;
493.5000;1.1070;0.9547;
493.8000;1.1070;0.9547;
494.1000;1.1046;0.9421;
494.4000;1.1103;0.9547;
494.7000;1.1119;0.9623;
495.0000;1.1079;0.9547;
495.3000;1.1062;0.9522;
495.6000;1.1046;0.9497;
495.9000;1.1079;0.9522;
496.2000;1.1022;0.9371;
496.5000;1.1062;0.9396;
496.8000;1.1062;0.9371;
497.1000;1.1062;0.9345;
497.4000;1.1079;0.9345;
497.7000;1.1062;0.9345;
498.0000;1.1079;0.9345;
498.3000;1.1079;0.9345;
498.6000;1.1087;0.9371;
498.9000;1.1079;0.9421;
499.2000;1.1070;0.9446;
499.5000;1.1070;0.9497;
499.8000;1.1087;0.9522;
500.1000;1.1070;0.9572;
500.4000;1.1070;0.9547;
500.7000;1.1054;0.9497;
501.0000;1.1095;0.9597;
501.3000;1.1087;0.9572;
501.6000;1.1087;0.9446;
501.9000;1.1136;0.9547;
502.2000;1.1030;0.9270;
502.5000;1.1087;0.9396;
502.8000;1.1070;0.9396;
503.1000;1.1022;0.9144;
503.4000;1.1087;0.9345;
503.7000;1.1103;0.9320;
504.0000;1.1087;0.9245;
504.3000;1.1103;0.9270;
504.6000;1.1095;0.9270;
504.9000;1.1095;0.9245;
505.2000;1.1046;0.9169;
505.5000;1.1070;0.9270;
505.8000;1.1087;0.9371;
506.1000;1.1079;0.9320;
506.4000;1.1111;0.9446;
506.7000;1.1070;0.9295;
507.0000;1.1079;0.9396;
507.3000;1.1127;0.9547;
507.6000;1.1095;0.9421;
507.9000;1.1079;0.9270;
508.2000;1.1070;0.9194;
508.5000;1.1070;0.9245;
508.8000;1.1038;0.9169;
509.1000;1.1062;0.9245;
509.4000;1.1087;0.9295;
509.7000;1.1070;0.9320;
510.0000;1.1079;0.9371;
510.3000;1.1079;0.9345;
510.6000;1.1070;0.9320;
510.9000;1.1070;0.9245;
511.2000;1.1095;0.9144;
511.5000;1.1095;0.9068;
511.8000;1.1079;0.8968;
512.1000;1.1087;0.9068;
512.4000;1.1087;0.9119;
512.7000;1.1079;0.9220;
513.0000;1.1087;0.9270;
513.3000;1.1062;0.9220;
513.6000;1.1087;0.9270;
513.9000;1.1087;0.9270;
514.2000;1.1079;0.9194;
514.5000;1.1030;0.9194;
514.8000;1.1070;0.9371;
515.1000;1.1087;0.9345;
515.4000;1.1079;0.9371;
515.7000;1.1087;0.9320;
516.0000;1.1095;0.9345;
516.3000;1.1079;0.9345;
516.6000;1.1095;0.9497;
516.9000;1.1070;0.9345;
517.2000;1.0997;0.9094;
517.5000;1.1079;0.9295;
517.8000;1.1070;0.9320;
518.1000;1.1062;0.9194;
518.4000;1.1046;0.9194;
518.7000;1.1160;0.9547;
519.0000;1.1079;0.9345;
519.3000;1.0981;0.9068;
519.6000;1.1070;0.9396;
519.9000;1.1062;0.9320;
520.2000;1.1070;0.9320;
520.5000;1.1087;0.9295;
520.8000;1.1079;0.9270;
521.1000;1.1070;0.9245;
521.4000;1.1079;0.9245;
521.7000;1.1119;0.9295;
522.0000;1.1079;0.9220;
522.3000;1.1103;0.9245;
522.6000;1.1038;0.9119;
522.9000;1.1095;0.9295;
523.2000;1.1013;0.9094;
523.5000;1.1070;0.9220;
523.8000;1.1070;0.9169;
524.1000;1.1079;0.9169;
524.4000;1.1079;0.9194;
524.7000;1.1062;0.9245;
525.0000;1.1070;0.9345;
525.3000;1.1095;0.9421;
525.6000;1.1087;0.9345;
525.9000;1.1079;0.9295;
526.2000;1.1079;0.9371;
526.5000;1.1070;0.9421;
526.8000;1.1070;0.9371;
527.1000;1.1079;0.9446;
527.4000;1.1079;0.9522;
527.7000;1.1103;0.9623;
528.0000;1.1087;0.9572;
528.3000;1.1046;0.9446;
528.6000;1.1062;0.9522;
528.9000;1.1079;0.9396;
529.2000;1.1079;0.9371;
529.5000;1.1062;0.9320;
529.8000;1.1079;0.9396;
530.1000;1.1062;0.9295;
530.4000;1.1046;0.9270;
530.7000;1.1070;0.9320;
531.0000;1.1062;0.9245;
531.3000;1.1030;0.9220;
531.6000;1.1079;0.9320;
531.9000;1.1079;0.9270;
532.2000;1.1062;0.9169;
532.5000;1.1095;0.9245;
532.8000;1.1046;0.9194;
533.1000;1.1062;0.9270;
533.4000;1.1038;0.9169;
533.7000;1.1079;0.9220;
534.0000;1.1070;0.9194;
534.3000;1.1079;0.9270;
534.6000;1.1079;0.9320;
534.9000;1.1070;0.9345;
535.2000;1.1062;0.9295;
535.5000;1.1079;0.9320;
535.8000;1.1070;0.9295;
536.1000;1.1070;0.9295;
536.4000;1.1079;0.9371;
536.7000;1.1087;0.9371;
537.0000;1.1087;0.9320;
537.3000;1.1095;0.9345;
537.6000;1.1079;0.9396;
537.9000;1.1070;0.9371;
538.2000;1.1087;0.9446;
538.5000;1.1119;0.9446;
538.8000;1.1103;0.9446;
539.1000;1.1054;0.9421;
539.4000;1.1046;0.9421;
539.7000;1.1062;0.9421;
540.0000;1.1054;0.9396;
540.3000;1.1022;0.9295;
540.6000;1.1087;0.9471;
540.9000;1.1111;0.9572;
541.2000;1.1111;0.9572;
541.5000;1.1087;0.9547;
541.8000;1.1079;0.9522;
542.1000;1.1079;0.9522;
542.4000;1.1070;0.9471;
542.7000;1.1070;0.9522;
543.0000;1.1079;0.9623;
543.3000;1.1087;0.9597;
543.6000;1.1054;0.9522;
543.9000;1.1070;0.9522;
544.2000;1.1062;0.9522;
544.5000;1.1046;0.9572;
544.8000;1.1054;0.9572;
545.1000;1.1046;0.9446;
545.4000;1.1070;0.9497;
545.7000;1.1079;0.9522;
546.0000;1.1070;0.9572;
546.3000;1.1070;0.9572;
546.6000;1.1079;0.9572;
546.9000;1.1079;0.9547;
547.2000;1.1087;0.9522;
547.5000;1.1070;0.9396;
547.8000;1.1070;0.9345;
548.1000;1.1062;0.9295;
548.4000;1.1054;0.9345;
548.7000;1.1079;0.9320;
549.0000;1.1070;0.9295;
549.3000;1.1079;0.9320;
549.6000;1.1070;0.9396;
549.9000;1.1062;0.9396;
550.2000;1.1054;0.9345;
550.5000;1.1062;0.9396;
550.8000;1.1062;0.9471;
551.1000;1.1070;0.9471;
551.4000;1.1087;0.9522;
551.7000;1.1070;0.9421;
552.0000;1.1079;0.9446;
552.3000;1.1087;0.9497;
552.6000;1.1087;0.9396;
552.9000;1.1070;0.9320;
553.2000;1.1070;0.9320;
553.5000;1.1079;0.9371;
553.8000;1.1079;0.9295;
554.1000;1.1070;0.9194;
554.4000;1.1079;0.9119;
554.7000;1.1070;0.9094;
555.0000;1.1054;0.9043;
555.3000;1.1062;0.9018;
555.6000;1.1062;0.9068;
555.9000;1.1062;0.9119;
556.2000;1.1087;0.9144;
556.5000;1.1046;0.9169;
556.8000;1.1062;0.9245;
557.1000;1.1070;0.9245;
557.4000;1.1103;0.9270;
557.7000;1.1079;0.9220;
558.0000;1.1079;0.9169;
558.3000;1.1087;0.9220;
558.6000;1.1095;0.9320;
558.9000;1.1079;0.9245;
559.2000;1.1070;0.9169;
559.5000;1.1079;0.9144;
559.8000;1.1062;0.8993;
560.1000;1.1070;0.9018;
560.4000;1.1095;0.9094;
560.7000;1.1030;0.8892;
561.0000;1.1079;0.8993;
561.3000;1.1095;0.8993;
561.6000;1.1079;0.9018;
561.9000;1.1087;0.9068;
562.2000;1.1152;0.9119;
562.5000;1.1054;0.8917;
562.8000;1.1095;0.9043;
563.1000;1.1062;0.9068;
563.4000;1.1119;0.9220;
563.7000;1.1070;0.9169;
564.0000;1.1062;0.9144;
564.3000;1.1079;0.9194;
564.6000;1.1054;0.9068;
564.9000;1.1119;0.9220;
565.2000;1.1079;0.9144;
565.5000;1.1038;0.9119;
565.8000;1.1038;0.9169;
566.1000;1.1079;0.9295;
566.4000;1.1062;0.9320;
566.7000;1.1054;0.9295;
567.0000;1.1054;0.9295;
567.3000;1.1079;0.9320;
567.6000;1.1038;0.9295;
567.9000;1.1079;0.9371;
568.2000;1.1079;0.9396;
568.5000;1.1062;0.9320;
568.8000;1.1070;0.9345;
569.1000;1.1095;0.9396;
569.4000;1.1070;0.9371;
569.7000;1.1070;0.9295;
570.0000;1.1079;0.9245;
570.3000;1.1079;0.9220;
570.6000;1.1054;0.9068;
570.9000;1.1062;0.9018;
571.2000;1.1062;0.9043;
571.5000;1.1070;0.9119;
571.8000;1.1062;0.9119;
572.1000;1.1070;0.9144;
572.4000;1.1095;0.9194;
572.7000;1.1079;0.9119;
573.0000;1.1038;0.9018;
573.3000;1.1054;0.8993;
573.6000;1.1087;0.9043;
573.9000;1.1103;0.9043;
574.2000;1.1062;0.9068;
574.5000;1.1046;0.9068;
574.8000;1.1095;0.9270;
575.1000;1.1054;0.9220;
575.4000;1.1054;0.9270;
575.7000;1.1054;0.9270;
576.0000;1.1054;0.9245;
576.3000;1.1062;0.9245;
576.6000;1.1070;0.9245;
576.9000;1.1054;0.9194;
577.2000;1.1062;0.9270;
577.5000;1.1070;0.9345;
577.8000;1.1062;0.9320;
578.1000;1.1070;0.9345;
578.4000;1.0989;0.9194;
578.7000;1.1062;0.9522;
579.0000;1.1070;0.9446;
579.3000;1.1079;0.9421;
579.6000;1.0989;0.9194;
579.9000;1.1046;0.9270;
580.2000;1.1070;0.9295;
580.5000;1.1070;0.9295;
580.8000;1.1079;0.9220;
581.1000;1.1054;0.9245;
581.4000;1.1062;0.9295;
581.7000;1.1062;0.9245;
582.0000;1.1119;0.9421;
582.3000;1.1111;0.9446;
582.6000;1.1062;0.9371;
582.9000;1.1087;0.9345;
583.2000;1.1070;0.9295;
583.5000;1.1070;0.9245;
583.8000;1.1054;0.9295;
584.1000;1.1054;0.9270;
584.4000;1.1136;0.9371;
584.7000;1.1054;0.9144;
585.0000;1.1070;0.9220;
585.3000;1.1062;0.9220;
585.6000;1.1054;0.9119;
585.9000;1.1054;0.9169;
586.2000;1.1046;0.9144;
586.5000;1.1062;0.9245;
586.8000;1.1054;0.9245;
587.1000;1.1046;0.9270;
587.4000;1.1038;0.9194;
587.7000;1.0989;0.9043;
588.0000;1.1062;0.9295;
588.3000;1.1103;0.9371;
588.6000;1.1046;0.9220;
588.9000;1.1062;0.9245;
589.2000;1.1070;0.9169;
589.5000;1.1062;0.9144;
589.8000;1.1062;0.9068;
590.1000;1.1062;0.9043;
590.4000;1.1070;0.9043;
590.7000;1.1054;0.9043;
591.0000;1.1070;0.9169;
591.3000;1.1070;0.9245;
591.6000;1.1070;0.9194;
591.9000;1.1070;0.9094;
592.2000;1.1038;0.8993;
592.5000;1.1095;0.9194;
592.8000;1.1062;0.9144;
593.1000;1.1062;0.9144;
593.4000;1.1062;0.9094;
593.7000;1.1046;0.9018;
594.0000;1.1070;0.9068;
594.3000;1.1070;0.9194;
594.6000;1.1070;0.9194;
594.9000;1.1062;0.9119;
595.2000;1.1079;0.9169;
595.5000;1.1119;0.9270;
595.8000;1.1070;0.9144;
596.1000;1.1062;0.9068;
596.4000;1.1070;0.9018;
596.7000;1.1046;0.8942;
597.0000;1.1062;0.8917;
597.3000;1.1062;0.8968;
597.6000;1.1054;0.8968;
597.9000;1.1079;0.9068;
598.2000;1.1070;0.9043;
598.5000;1.1070;0.9018;
598.8000;1.1054;0.9043;
599.1000;1.1054;0.8993;
599.4000;1.1062;0.8993;
599.7000;1.1022;0.8867;
600.0000;1.1054;0.9068;
600.3000;1.1070;0.9043;
600.6000;1.1070;0.8942;
600.9000;1.1030;0.8842;
601.2000;1.0940;0.8615;
601.5000;1.0802;0.8363;
601.8000;1.0761;0.8338;
602.1000;1.0655;0.8212;
602.4000;1.0558;0.8086;
602.7000;1.0460;0.7910;
603.0000;1.0387;0.7733;
603.3000;1.0322;0.7507;
603.6000;1.0240;0.7305;
603.9000;1.0175;0.7305;
604.2000;1.0069;0.7104;
604.5000;1.0045;0.7129;
604.8000;0.9955;0.6927;
605.1000;0.9906;0.6826;
605.4000;0.9801;0.6701;
605.7000;0.9801;0.6852;
606.0000;0.9744;0.6776;
606.3000;0.9695;0.6726;
606.6000;0.9654;0.6701;
606.9000;0.9605;0.6675;
607.2000;0.9540;0.6549;
607.5000;0.9516;0.6499;
607.8000;0.9451;0.6449;
608.1000;0.9426;0.6474;
608.4000;0.9377;0.6499;
608.7000;0.9345;0.6575;
609.0000;0.9304;0.6600;
609.3000;0.9263;0.6524;
609.6000;0.9223;0.6499;
609.9000;0.9182;0.6398;
610.2000;0.9149;0.6272;
610.5000;0.9125;0.6323;
610.8000;0.9101;0.6247;
611.1000;0.9060;0.6323;
611.4000;0.9019;0.6373;
611.7000;0.8995;0.6373;
612.0000;0.8946;0.6348;
612.3000;0.8978;0.6398;
612.6000;0.8897;0.6222;
612.9000;0.8897;0.6323;
613.2000;0.8856;0.6323;
613.5000;0.8816;0.6272;
613.8000;0.8816;0.6348;
614.1000;0.8775;0.6272;
614.4000;0.8734;0.6146;
614.7000;0.8726;0.6121;
615.0000;0.8694;0.6146;
615.3000;0.8661;0.6121;
615.6000;0.8628;0.6096;
615.9000;0.8604;0.6071;
616.2000;0.8596;0.6020;
616.5000;0.8482;0.5693;
616.8000;0.8547;0.5945;
617.1000;0.8531;0.5920;
617.4000;0.8498;0.5844;
617.7000;0.8482;0.5894;
618.0000;0.8474;0.5894;
618.3000;0.8449;0.5869;
618.6000;0.8417;0.5894;
618.9000;0.8409;0.5945;
619.2000;0.8400;0.5945;
619.5000;0.8368;0.5894;
619.8000;0.8384;0.5945;
620.1000;0.8335;0.5844;
620.4000;0.8327;0.5945;
620.7000;0.8368;0.6096;
621.0000;0.8270;0.5945;
621.3000;0.8262;0.6071;
621.6000;0.8246;0.6096;
621.9000;0.8278;0.6272;
622.2000;0.8221;0.6197;
622.5000;0.8205;0.6222;
622.8000;0.8189;0.6222;
623.1000;0.8173;0.6197;
623.4000;0.8164;0.6146;
623.7000;0.8156;0.6222;
624.0000;0.8116;0.6071;
624.3000;0.8116;0.6020;
624.6000;0.8107;0.5995;
624.9000;0.8083;0.5894;
625.2000;0.8059;0.5869;
625.5000;0.8050;0.5970;
625.8000;0.8042;0.5995;
626.1000;0.8010;0.5970;
626.4000;0.8002;0.5869;
626.7000;0.7985;0.5819;
627.0000;0.7969;0.5819;
627.3000;0.7928;0.5743;
627.6000;0.7937;0.5743;
627.9000;0.7953;0.5718;
628.2000;0.7953;0.5819;
628.5000;0.7920;0.5794;
628.8000;0.7912;0.5743;
629.1000;0.7912;0.5718;
629.4000;0.7880;0.5743;
629.7000;0.7896;0.5769;
630.0000;0.7904;0.5718;
630.3000;0.7855;0.5718;
630.6000;0.7855;0.5769;
630.9000;0.7839;0.5743;
631.2000;0.7823;0.5794;
631.5000;0.7814;0.5743;
631.8000;0.7790;0.5769;
632.1000;0.7790;0.5844;
632.4000;0.7741;0.5869;
632.7000;0.7757;0.5844;
633.0000;0.7749;0.5769;
633.3000;0.7733;0.5794;
633.6000;0.7749;0.5819;
633.9000;0.7725;0.5743;
634.2000;0.7700;0.5844;
634.5000;0.7709;0.5945;
634.8000;0.7709;0.5970;
635.1000;0.7733;0.6071;
635.4000;0.7660;0.5920;
635.7000;0.7668;0.5945;
636.0000;0.7668;0.5945;
636.3000;0.7660;0.5995;
636.6000;0.7643;0.5970;
636.9000;0.7643;0.5945;
637.2000;0.7570;0.5794;
637.5000;0.7595;0.5894;
637.8000;0.7595;0.5920;
638.1000;0.7595;0.5970;
638.4000;0.7570;0.5970;
638.7000;0.7570;0.5945;
639.0000;0.7603;0.6096;
639.3000;0.7570;0.5920;
639.6000;0.7562;0.5769;
639.9000;0.7546;0.5668;
640.2000;0.7554;0.5693;
640.5000;0.7578;0.5743;
640.8000;0.7513;0.5668;
641.1000;0.7513;0.5718;
641.4000;0.7521;0.5769;
641.7000;0.7505;0.5769;
642.0000;0.7497;0.5794;
642.3000;0.7505;0.5718;
642.6000;0.7489;0.5643;
642.9000;0.7497;0.5718;
643.2000;0.7473;0.5718;
643.5000;0.7473;0.5794;
643.8000;0.7464;0.5743;
644.1000;0.7456;0.5693;
644.4000;0.7440;0.5643;
644.7000;0.7432;0.5617;
645.0000;0.7399;0.5567;
645.3000;0.7448;0.5743;
645.6000;0.7440;0.5769;
645.9000;0.7407;0.5794;
646.2000;0.7416;0.5819;
646.5000;0.7383;0.5920;
646.8000;0.7367;0.5920;
647.1000;0.7375;0.6020;
647.4000;0.7326;0.5970;
647.7000;0.7359;0.5995;
648.0000;0.7350;0.5945;
648.3000;0.7350;0.5894;
648.6000;0.7350;0.5844;
648.9000;0.7342;0.5819;
649.2000;0.7326;0.5844;
649.5000;0.7326;0.5844;
649.8000;0.7326;0.5869;
650.1000;0.7326;0.5844;
650.4000;0.7318;0.5869;
650.7000;0.7318;0.5794;
651.0000;0.7310;0.5794;
651.3000;0.7310;0.5844;
651.6000;0.7310;0.5894;
651.9000;0.7318;0.5869;
652.2000;0.7293;0.5844;
652.5000;0.7285;0.5819;
652.8000;0.7261;0.5718;
653.1000;0.7245;0.5693;
653.4000;0.7261;0.5718;
653.7000;0.7245;0.5794;
654.0000;0.7236;0.5819;
654.3000;0.7269;0.5920;
654.6000;0.7236;0.5844;
654.9000;0.7277;0.5869;
655.2000;0.7204;0.5718;
655.5000;0.7236;0.5920;
655.8000;0.7245;0.5970;
656.1000;0.7212;0.5920;
656.4000;0.7220;0.5844;
656.7000;0.7139;0.5668;
657.0000;0.7196;0.5743;
657.3000;0.7204;0.5819;
657.6000;0.7179;0.5844;
657.9000;0.7131;0.5769;
658.2000;0.7245;0.6121;
658.5000;0.7179;0.5970;
658.8000;0.7171;0.5920;
659.1000;0.7204;0.5970;
659.4000;0.7171;0.5819;
659.7000;0.7188;0.5869;
660.0000;0.7171;0.5894;
660.3000;0.7155;0.5869;
660.6000;0.7155;0.5869;
660.9000;0.7131;0.5794;
661.2000;0.7147;0.5819;
661.5000;0.7106;0.5769;
661.8000;0.7123;0.5769;
662.1000;0.7082;0.5718;
662.4000;0.7098;0.5693;
662.7000;0.7090;0.5643;
663.0000;0.7106;0.5643;
663.3000;0.7114;0.5718;
663.6000;0.7106;0.5668;
663.9000;0.7098;0.5668;
664.2000;0.7098;0.5617;
664.5000;0.7098;0.5643;
664.8000;0.7098;0.5693;
665.1000;0.7082;0.5643;
665.4000;0.7090;0.5693;
665.7000;0.7114;0.5743;
666.0000;0.7082;0.5718;
666.3000;0.7066;0.5693;
666.6000;0.7057;0.5668;
666.9000;0.7049;0.5794;
667.2000;0.7066;0.5945;
667.5000;0.7033;0.5894;
667.8000;0.7041;0.5920;
668.1000;0.7033;0.5894;
668.4000;0.7033;0.5869;
668.7000;0.7025;0.5743;
669.0000;0.7066;0.5794;
669.3000;0.7025;0.5769;
669.6000;0.7000;0.5743;
669.9000;0.7009;0.5769;
670.2000;0.6992;0.5668;
670.5000;0.7025;0.5819;
670.8000;0.7000;0.5769;
671.1000;0.6984;0.5769;
671.4000;0.6952;0.5693;
671.7000;0.6935;0.5769;
672.0000;0.6960;0.5769;
672.3000;0.6943;0.5743;
672.6000;0.6984;0.5693;
672.9000;0.6943;0.5491;
673.2000;0.6968;0.5466;
673.5000;0.6976;0.5466;
673.8000;0.6960;0.5391;
674.1000;0.6952;0.5517;
674.4000;0.6960;0.5567;
674.7000;0.6943;0.5567;
675.0000;0.6927;0.5617;
675.3000;0.6935;0.5643;
675.6000;0.6935;0.5617;
675.9000;0.6952;0.5542;
676.2000;0.6878;0.5340;
676.5000;0.6927;0.5416;
676.8000;0.6903;0.5391;
677.1000;0.6911;0.5391;
677.4000;0.6927;0.5517;
677.7000;0.6927;0.5491;
678.0000;0.6911;0.5617;
678.3000;0.7009;0.5945;
678.6000;0.6927;0.5693;
678.9000;0.6943;0.5743;
679.2000;0.6927;0.5643;
679.5000;0.6911;0.5567;
679.8000;0.6911;0.5668;
680.1000;0.6903;0.5567;
680.4000;0.6895;0.5718;
680.7000;0.6878;0.5794;
681.0000;0.6886;0.5769;
681.3000;0.6870;0.5668;
681.6000;0.6838;0.5643;
681.9000;0.6862;0.5718;
682.2000;0.6870;0.5693;
682.5000;0.6862;0.5668;
682.8000;0.6854;0.5693;
683.1000;0.6854;0.5718;
683.4000;0.6854;0.5643;
683.7000;0.6862;0.5643;
684.0000;0.6854;0.5617;
684.3000;0.6846;0.5617;
684.6000;0.6854;0.5643;
684.9000;0.6846;0.5592;
685.2000;0.6854;0.5592;
685.5000;0.6862;0.5643;
685.8000;0.6870;0.5668;
686.1000;0.6854;0.5617;
686.4000;0.6821;0.5517;
686.7000;0.6838;0.5592;
687.0000;0.6838;0.5693;
687.3000;0.6838;0.5668;
687.6000;0.6829;0.5668;
687.9000;0.6829;0.5794;
688.2000;0.6797;0.5718;
688.5000;0.6813;0.5844;
688.8000;0.6838;0.5869;
689.1000;0.6781;0.5668;
689.4000;0.6813;0.5693;
689.7000;0.6805;0.5819;
690.0000;0.6813;0.5894;
690.3000;0.6805;0.5844;
690.6000;0.6781;0.5794;
690.9000;0.6797;0.5794;
691.2000;0.6797;0.5743;
691.5000;0.6797;0.5794;
691.8000;0.6789;0.5794;
692.1000;0.6781;0.5819;
692.4000;0.6797;0.5894;
692.7000;0.6789;0.5945;
693.0000;0.6789;0.5995;
693.3000;0.6756;0.5945;
693.6000;0.6748;0.5920;
693.9000;0.6772;0.5970;
694.2000;0.6764;0.6046;
694.5000;0.6764;0.5970;
694.8000;0.6724;0.5844;
695.1000;0.6764;0.5920;
695.4000;0.6764;0.5945;
695.7000;0.6764;0.5920;
696.0000;0.6756;0.5894;
696.3000;0.6748;0.5718;
696.6000;0.6724;0.5693;
696.9000;0.6740;0.5844;
697.2000;0.6740;0.5844;
697.5000;0.6748;0.5869;
697.8000;0.6748;0.5920;
698.1000;0.6724;0.5769;
698.4000;0.6732;0.5718;
698.7000;0.6732;0.5643;
699.0000;0.6732;0.5668;
699.3000;0.6724;0.5693;
699.6000;0.6724;0.5794;
699.9000;0.6724;0.5995;
700.2000;0.6748;0.6071;
700.5000;0.6732;0.6020;
700.8000;0.6732;0.6046;
701.1000;0.6724;0.5970;
701.4000;0.6724;0.6046;
701.7000;0.6724;0.6020;
702.0000;0.6732;0.5995;
702.3000;0.6699;0.5995;
702.6000;0.6707;0.5970;
702.9000;0.6699;0.5869;
703.2000;0.6699;0.5794;
703.5000;0.6707;0.5894;
703.8000;0.6707;0.5920;
704.1000;0.6707;0.5819;
704.4000;0.6675;0.5769;
704.7000;0.6707;0.5844;
705.0000;0.6707;0.5894;
705.3000;0.6699;0.5869;
705.6000;0.6675;0.5794;
705.9000;0.6691;0.5869;
706.2000;0.6683;0.5894;
706.5000;0.6667;0.5869;
706.8000;0.6683;0.5894;
707.1000;0.6675;0.5894;
707.4000;0.6659;0.5945;
707.7000;0.6675;0.5894;
708.0000;0.6667;0.5894;
708.3000;0.6659;0.5945;
708.6000;0.6650;0.5920;
708.9000;0.6650;0.5945;
709.2000;0.6667;0.5869;
709.5000;0.6634;0.5794;
709.8000;0.6659;0.5794;
710.1000;0.6659;0.5869;
710.4000;0.6675;0.5920;
710.7000;0.6683;0.5995;
711.0000;0.6650;0.5794;
711.3000;0.6634;0.5693;
711.6000;0.6650;0.5769;
711.9000;0.6650;0.5844;
712.2000;0.6642;0.5718;
712.5000;0.6650;0.5718;
712.8000;0.6650;0.5769;
713.1000;0.6642;0.5794;
713.4000;0.6626;0.5769;
713.7000;0.6642;0.5769;
714.0000;0.6642;0.5844;
714.3000;0.6634;0.5894;
714.6000;0.6618;0.5819;
714.9000;0.6610;0.5844;
715.2000;0.6626;0.5844;
715.5000;0.6642;0.5819;
715.8000;0.6642;0.5819;
716.1000;0.6626;0.5769;
716.4000;0.6593;0.5643;
716.7000;0.6610;0.5693;
717.0000;0.6602;0.5668;
717.3000;0.6610;0.5567;
717.6000;0.6626;0.5617;
717.9000;0.6610;0.5743;
718.2000;0.6593;0.5718;
718.5000;0.6610;0.5668;
718.8000;0.6602;0.5769;
719.1000;0.6602;0.5794;
719.4000;0.6602;0.5819;
719.7000;0.6593;0.5794;
720.0000;0.6585;0.5794;
720.3000;0.6618;0.5945;
720.6000;0.6593;0.5920;
720.9000;0.6593;0.5894;
721.2000;0.6585;0.5869;
721.5000;0.6585;0.5819;
721.8000;0.6602;0.5869;
722.1000;0.6585;0.5819;
722.4000;0.6577;0.5769;
722.7000;0.6585;0.5693;
723.0000;0.6585;0.5668;
723.3000;0.6585;0.5743;
723.6000;0.6553;0.5617;
723.9000;0.6585;0.5718;
724.2000;0.6577;0.5743;
724.5000;0.6593;0.5693;
724.8000;0.6569;0.5643;
725.1000;0.6569;0.5794;
725.4000;0.6569;0.5894;
725.7000;0.6577;0.5894;
726.0000;0.6569;0.5945;
726.3000;0.6569;0.6046;
726.6000;0.6463;0.5844;
726.9000;0.6585;0.6071;
727.2000;0.6569;0.6096;
727.5000;0.6545;0.5970;
727.8000;0.6545;0.5869;
728.1000;0.6561;0.5794;
728.4000;0.6593;0.5894;
728.7000;0.6536;0.5693;
729.0000;0.6561;0.5718;
729.3000;0.6561;0.5718;
729.6000;0.6569;0.5819;
729.9000;0.6553;0.5769;
730.2000;0.6545;0.5869;
730.5000;0.6569;0.5970;
730.8000;0.6553;0.5920;
731.1000;0.6545;0.5894;
731.4000;0.6545;0.5945;
731.7000;0.6561;0.5945;
732.0000;0.6545;0.5894;
732.3000;0.6553;0.5869;
732.6000;0.6569;0.5869;
732.9000;0.6545;0.5844;
733.2000;0.6528;0.5819;
733.5000;0.6520;0.5844;
733.8000;0.6463;0.5693;
734.1000;0.6520;0.5819;
734.4000;0.6545;0.5894;
734.7000;0.6536;0.5869;
735.0000;0.6512;0.5743;
735.3000;0.6512;0.5794;
735.6000;0.6528;0.5794;
735.9000;0.6528;0.5718;
736.2000;0.6545;0.5769;
736.5000;0.6593;0.5945;
736.8000;0.6528;0.5693;
737.1000;0.6536;0.5743;
737.4000;0.6520;0.5743;
737.7000;0.6455;0.5542;
738.0000;0.6512;0.5693;
738.3000;0.6520;0.5617;
738.6000;0.6504;0.5567;
738.9000;0.6512;0.5567;
739.2000;0.6512;0.5567;
739.5000;0.6520;0.5592;
739.8000;0.6520;0.5617;
740.1000;0.6520;0.5668;
740.4000;0.6520;0.5668;
740.7000;0.6496;0.5693;
741.0000;0.6512;0.5743;
741.3000;0.6496;0.5769;
741.6000;0.6512;0.5894;
741.9000;0.6504;0.5844;
742.2000;0.6512;0.5794;
742.5000;0.6536;0.5844;
742.8000;0.6496;0.5794;
743.1000;0.6488;0.5844;
743.4000;0.6488;0.5869;
743.7000;0.6496;0.5844;
744.0000;0.6447;0.5819;
744.3000;0.6471;0.5869;
744.6000;0.6479;0.5794;
744.9000;0.6471;0.5643;
745.2000;0.6479;0.5567;
745.5000;0.6463;0.5617;
745.8000;0.6496;0.5643;
746.1000;0.6488;0.5693;
746.4000;0.6504;0.5643;
746.7000;0.6488;0.5567;
747.0000;0.6496;0.5617;
747.3000;0.6455;0.5466;
747.6000;0.6439;0.5491;
747.9000;0.6471;0.5643;
748.2000;0.6471;0.5693;
748.5000;0.6479;0.5617;
748.8000;0.6471;0.5643;
749.1000;0.6463;0.5668;
749.4000;0.6488;0.5743;
749.7000;0.6479;0.5769;
750.0000;0.6479;0.5718;
750.3000;0.6455;0.5718;
750.6000;0.6463;0.5693;
750.9000;0.6455;0.5693;
751.2000;0.6488;0.5718;
751.5000;0.6463;0.5643;
751.8000;0.6455;0.5643;
752.1000;0.6439;0.5643;
752.4000;0.6439;0.5567;
752.7000;0.6439;0.5643;
753.0000;0.6447;0.5668;
753.3000;0.6447;0.5693;
753.6000;0.6447;0.5617;
753.9000;0.6447;0.5718;
754.2000;0.6398;0.5592;
754.5000;0.6439;0.5718;
754.8000;0.6447;0.5794;
755.1000;0.6447;0.5794;
755.4000;0.6422;0.5794;
755.7000;0.6447;0.5794;
756.0000;0.6447;0.5743;
756.3000;0.6439;0.5693;
756.6000;0.6447;0.5743;
756.9000;0.6390;0.5643;
757.2000;0.6439;0.5869;
757.5000;0.6447;0.5920;
757.8000;0.6447;0.5945;
758.1000;0.6422;0.5869;
758.4000;0.6422;0.5844;
758.7000;0.6365;0.5693;
759.0000;0.6422;0.5894;
759.3000;0.6422;0.5844;
759.6000;0.6431;0.5894;
759.9000;0.6431;0.5819;
760.2000;0.6406;0.5769;
760.5000;0.6431;0.5869;
760.8000;0.6414;0.5819;
761.1000;0.6431;0.5869;
761.4000;0.6447;0.5894;
761.7000;0.6422;0.5844;
762.0000;0.6414;0.5819;
762.3000;0.6414;0.5844;
762.6000;0.6439;0.5869;
762.9000;0.6414;0.5794;
763.2000;0.6406;0.5794;
763.5000;0.6422;0.5844;
763.8000;0.6414;0.5794;
764.1000;0.6422;0.5894;
764.4000;0.6422;0.5869;
764.7000;0.6406;0.5894;
765.0000;0.6431;0.6096;
765.3000;0.6398;0.6020;
765.6000;0.6398;0.5970;
765.9000;0.6357;0.5769;
766.2000;0.6398;0.5869;
766.5000;0.6406;0.5894;
766.8000;0.6406;0.5844;
767.1000;0.6374;0.5718;
767.4000;0.6398;0.5844;
767.7000;0.6414;0.5794;
768.0000;0.6414;0.5869;
768.3000;0.6431;0.5894;
768.6000;0.6406;0.5894;
768.9000;0.6398;0.5920;
769.2000;0.6398;0.5920;
769.5000;0.6390;0.5894;
769.8000;0.6406;0.5970;
770.1000;0.6382;0.5920;
770.4000;0.6398;0.5970;
770.7000;0.6382;0.5894;
771.0000;0.6382;0.5894;
771.3000;0.6390;0.5894;
771.6000;0.6390;0.5794;
771.9000;0.6390;0.5769;
772.2000;0.6365;0.5718;
772.5000;0.6422;0.5819;
772.8000;0.6398;0.5794;
773.1000;0.6406;0.5819;
773.4000;0.6382;0.5769;
773.7000;0.6374;0.5819;
774.0000;0.6398;0.5869;
774.3000;0.6382;0.5844;
774.6000;0.6365;0.5819;
774.9000;0.6382;0.5819;
775.2000;0.6374;0.5869;
775.5000;0.6390;0.5869;
775.8000;0.6382;0.5894;
776.1000;0.6365;0.5844;
776.4000;0.6406;0.5920;
776.7000;0.6398;0.5920;
777.0000;0.6398;0.5819;
777.3000;0.6406;0.5844;
777.6000;0.6382;0.5794;
777.9000;0.6398;0.5769;
778.2000;0.6382;0.5743;
778.5000;0.6382;0.5794;
778.8000;0.6374;0.5869;
779.1000;0.6382;0.5894;
779.4000;0.6374;0.5945;
779.7000;0.6447;0.5995;
780.0000;0.6414;0.5995;
780.3000;0.6374;0.5920;
780.6000;0.6382;0.5945;
780.9000;0.6333;0.5869;
781.2000;0.6365;0.5995;
781.5000;0.6390;0.5970;
781.8000;0.6382;0.5945;
782.1000;0.6406;0.6046;
782.4000;0.6374;0.5995;
782.7000;0.6357;0.6046;
783.0000;0.6365;0.6096;
783.3000;0.6357;0.6020;
783.6000;0.6357;0.5970;
783.9000;0.6349;0.5894;
784.2000;0.6374;0.5894;
784.5000;0.6349;0.5844;
784.8000;0.6349;0.5894;
785.1000;0.6349;0.5945;
785.4000;0.6357;0.6020;
785.7000;0.6390;0.6096;
786.0000;0.6357;0.5995;
786.3000;0.6382;0.6121;
786.6000;0.6374;0.6096;
786.9000;0.6349;0.6071;
787.2000;0.6349;0.6071;
787.5000;0.6357;0.6046;
787.8000;0.6309;0.5970;
788.1000;0.6365;0.6096;
788.4000;0.6357;0.5970;
788.7000;0.6390;0.6121;
789.0000;0.6357;0.5995;
789.3000;0.6341;0.6020;
789.6000;0.6357;0.6020;
789.9000;0.6341;0.6046;
790.2000;0.6341;0.5995;
790.5000;0.6341;0.6046;
790.8000;0.6414;0.6172;
791.1000;0.6325;0.5920;
791.4000;0.6341;0.5920;
791.7000;0.6341;0.5945;
792.0000;0.6341;0.6020;
792.3000;0.6357;0.6020;
792.6000;0.6365;0.5995;
792.9000;0.6349;0.5920;
793.2000;0.6357;0.5920;
793.5000;0.6357;0.5920;
793.8000;0.6333;0.5794;
794.1000;0.6227;0.5542;
794.4000;0.6349;0.5794;
794.7000;0.6317;0.5869;
795.0000;0.6317;0.5894;
795.3000;0.6333;0.5970;
795.6000;0.6292;0.5869;
795.9000;0.6333;0.5970;
796.2000;0.6341;0.5920;
796.5000;0.6333;0.5869;
796.8000;0.6333;0.5970;
797.1000;0.6333;0.5970;
797.4000;0.6325;0.5995;
797.7000;0.6341;0.5995;
798.0000;0.6325;0.5945;
798.3000;0.6333;0.5894;
798.6000;0.6333;0.5970;
798.9000;0.6333;0.5894;
799.2000;0.6325;0.5894;
799.5000;0.6349;0.6046;
799.8000;0.6325;0.5970;
800.1000;0.6333;0.6046;
800.4000;0.6317;0.5945;
800.7000;0.6317;0.5894;
801.0000;0.6333;0.5970;
801.3000;0.6325;0.5945;
801.6000;0.6341;0.5920;
801.9000;0.6309;0.5819;
802.2000;0.6317;0.5794;
802.5000;0.6365;0.5869;
802.8000;0.6325;0.5693;
803.1000;0.6333;0.5819;
803.4000;0.6333;0.5970;
803.7000;0.6325;0.6071;
804.0000;0.6317;0.6121;
804.3000;0.6309;0.6046;
804.6000;0.6325;0.6096;
804.9000;0.6357;0.6071;
805.2000;0.6317;0.5995;
805.5000;0.6325;0.6046;
805.8000;0.6325;0.5945;
806.1000;0.6333;0.5995;
806.4000;0.6365;0.6046;
806.7000;0.6325;0.5970;
807.0000;0.6300;0.5945;
807.3000;0.6300;0.5869;
807.6000;0.6300;0.5743;
807.9000;0.6300;0.5844;
808.2000;0.6349;0.5945;
808.5000;0.6300;0.5894;
808.8000;0.6325;0.5920;
809.1000;0.6260;0.5769;
809.4000;0.6268;0.5769;
809.7000;0.6317;0.5920;
810.0000;0.6292;0.5894;
810.3000;0.6243;0.5819;
810.6000;0.6317;0.5995;
810.9000;0.6292;0.5894;
811.2000;0.6300;0.5869;
811.5000;0.6284;0.5743;
811.8000;0.6292;0.5769;
812.1000;0.6309;0.5819;
812.4000;0.6309;0.5819;
812.7000;0.6300;0.5920;
813.0000;0.6300;0.5920;
813.3000;0.6317;0.5945;
813.6000;0.6325;0.5894;
813.9000;0.6309;0.6020;
814.2000;0.6309;0.5970;
814.5000;0.6292;0.5894;
814.8000;0.6292;0.5844;
815.1000;0.6300;0.5945;
815.4000;0.6309;0.6071;
815.7000;0.6292;0.5970;
816.0000;0.6284;0.5945;
816.3000;0.6292;0.6020;
816.6000;0.6357;0.6172;
816.9000;0.6268;0.5920;
817.2000;0.6325;0.5970;
817.5000;0.6284;0.5894;
817.8000;0.6309;0.5945;
818.1000;0.6292;0.6020;
818.4000;0.6268;0.5844;
818.7000;0.6284;0.5844;
819.0000;0.6268;0.5844;
819.3000;0.6276;0.5869;
819.6000;0.6243;0.5844;
819.9000;0.6276;0.5894;
820.2000;0.6260;0.5894;
820.5000;0.6276;0.5894;
820.8000;0.6243;0.5894;
821.1000;0.6268;0.5945;
821.4000;0.6284;0.5920;
821.7000;0.6284;0.5920;
822.0000;0.6260;0.5920;
822.3000;0.6276;0.5995;
822.6000;0.6276;0.5995;
822.9000;0.6268;0.5894;
823.2000;0.6276;0.5894;
823.5000;0.6276;0.5894;
823.8000;0.6268;0.5970;
824.1000;0.6284;0.5970;
824.4000;0.6300;0.6071;
824.7000;0.6268;0.6020;
825.0000;0.6276;0.5970;
825.3000;0.6276;0.6020;
825.6000;0.6260;0.6020;
825.9000;0.6276;0.6121;
826.2000;0.6268;0.6172;
826.5000;0.6284;0.6297;
826.8000;0.6252;0.6247;
827.1000;0.6243;0.6096;
827.4000;0.6260;0.6121;
827.7000;0.6284;0.6121;
828.0000;0.6268;0.6046;
828.3000;0.6260;0.6071;
828.6000;0.6268;0.6071;
828.9000;0.6333;0.6272;
829.2000;0.6260;0.6172;
829.5000;0.6243;0.6146;
829.8000;0.6219;0.6121;
830.1000;0.6260;0.6247;
830.4000;0.6268;0.6323;
830.7000;0.6276;0.6272;
831.0000;0.6252;0.6146;
831.3000;0.6284;0.6247;
831.6000;0.6260;0.6197;
831.9000;0.6252;0.6172;
832.2000;0.6243;0.6121;
832.5000;0.6252;0.6121;
832.8000;0.6252;0.6121;
833.1000;0.6260;0.6172;
833.4000;0.6235;0.6172;
833.7000;0.6235;0.6197;
834.0000;0.6252;0.6096;
834.3000;0.6235;0.5945;
834.6000;0.6243;0.5920;
834.9000;0.6243;0.5869;
835.2000;0.6252;0.5844;
835.5000;0.6252;0.5869;
835.8000;0.6203;0.5668;
836.1000;0.6227;0.5769;
836.4000;0.6243;0.5819;
836.7000;0.6252;0.5819;
837.0000;0.6252;0.5693;
837.3000;0.6235;0.5718;
837.6000;0.6243;0.5794;
837.9000;0.6243;0.5819;
838.2000;0.6252;0.5819;
838.5000;0.6260;0.5894;
838.8000;0.6243;0.5970;
839.1000;0.6243;0.6046;
839.4000;0.6252;0.6020;
839.7000;0.6235;0.6046;
840.0000;0.6252;0.6121;
840.3000;0.6235;0.6146;
840.6000;0.6235;0.6172;
840.9000;0.6227;0.6096;
841.2000;0.6219;0.6146;
841.5000;0.6243;0.6222;
841.8000;0.6235;0.6121;
842.1000;0.6252;0.6121;
842.4000;0.6235;0.6121;
842.7000;0.6235;0.6096;
843.0000;0.6243;0.6071;
843.3000;0.6235;0.6046;
843.6000;0.6227;0.6020;
843.9000;0.6243;0.6096;
844.2000;0.6235;0.6046;
844.5000;0.6170;0.5869;
844.8000;0.6227;0.5945;
845.1000;0.6235;0.5970;
845.4000;0.6260;0.6172;
845.7000;0.6243;0.6197;
846.0000;0.6227;0.6247;
846.3000;0.6227;0.6247;
846.6000;0.6227;0.6297;
846.9000;0.6243;0.6247;
847.2000;0.6243;0.6197;
847.5000;0.6219;0.6172;
847.8000;0.6235;0.6096;
848.1000;0.6219;0.6096;
848.4000;0.6219;0.6046;
848.7000;0.6252;0.6096;
849.0000;0.6219;0.6020;
849.3000;0.6219;0.5970;
849.6000;0.6227;0.5844;
849.9000;0.6219;0.5920;
850.2000;0.6243;0.6020;
850.5000;0.6268;0.6121;
850.8000;0.6227;0.6046;
851.1000;0.6219;0.6071;
851.4000;0.6211;0.6096;
851.7000;0.6276;0.6172;
852.0000;0.6186;0.5970;
852.3000;0.6219;0.6096;
852.6000;0.6203;0.6046;
852.9000;0.6211;0.5995;
853.2000;0.6178;0.5794;
853.5000;0.6235;0.5869;
853.8000;0.6227;0.5894;
854.1000;0.6219;0.5869;
854.4000;0.6219;0.5819;
854.7000;0.6219;0.5894;
855.0000;0.6227;0.5970;
855.3000;0.6178;0.5819;
855.6000;0.6235;0.6020;
855.9000;0.6219;0.6020;
856.2000;0.6211;0.6046;
856.5000;0.6227;0.6046;
856.8000;0.6211;0.6071;
857.1000;0.6227;0.6046;
857.4000;0.6211;0.5995;
857.7000;0.6170;0.5869;
858.0000;0.6203;0.6020;
858.3000;0.6227;0.6046;
858.6000;0.6203;0.5995;
858.9000;0.6227;0.6020;
859.2000;0.6219;0.6046;
859.5000;0.6260;0.6096;
859.8000;0.6219;0.6020;
860.1000;0.6203;0.5995;
860.4000;0.6219;0.6020;
860.7000;0.6235;0.6071;
861.0000;0.6227;0.6071;
861.3000;0.6284;0.6222;
861.6000;0.6227;0.6121;
861.9000;0.6219;0.6121;
862.2000;0.6227;0.6096;
862.5000;0.6186;0.5995;
862.8000;0.6186;0.5995;
863.1000;0.6195;0.6071;
863.4000;0.6203;0.5995;
863.7000;0.6219;0.5970;
864.0000;0.6195;0.5869;
864.3000;0.6186;0.5869;
864.6000;0.6178;0.5869;
864.9000;0.6203;0.5894;
865.2000;0.6211;0.5844;
865.5000;0.6203;0.5844;
865.8000;0.6146;0.5617;
866.1000;0.6203;0.5693;
866.4000;0.6203;0.5769;
866.7000;0.6195;0.5769;
867.0000;0.6276;0.5894;
867.3000;0.6211;0.5743;
867.6000;0.6146;0.5491;
867.9000;0.6186;0.5617;
868.2000;0.6211;0.5743;
868.5000;0.6211;0.5718;
868.8000;0.6203;0.5693;
869.1000;0.6219;0.5794;
869.4000;0.6211;0.5920;
869.7000;0.6227;0.6020;
870.0000;0.6211;0.5970;
870.3000;0.6219;0.5995;
870.6000;0.6211;0.6046;
870.9000;0.6243;0.6096;
871.2000;0.6203;0.5920;
871.5000;0.6195;0.5970;
871.8000;0.6219;0.6096;
872.1000;0.6203;0.6096;
872.4000;0.6195;0.6121;
872.7000;0.6211;0.6247;
873.0000;0.6186;0.6222;
873.3000;0.6195;0.6247;
873.6000;0.6203;0.6247;
873.9000;0.6195;0.6222;
874.2000;0.6203;0.6121;
874.5000;0.6203;0.6146;
874.8000;0.6203;0.6222;
875.1000;0.6203;0.6146;
875.4000;0.6186;0.6046;
875.7000;0.6195;0.6071;
876.0000;0.6195;0.6172;
876.3000;0.6195;0.6197;
876.6000;0.6195;0.6197;
876.9000;0.6195;0.6197;
877.2000;0.6162;0.6071;
877.5000;0.6195;0.6046;
877.8000;0.6195;0.5970;
878.1000;0.6186;0.6020;
878.4000;0.6138;0.5970;
878.7000;0.6195;0.6096;
879.0000;0.6203;0.6197;
879.3000;0.6138;0.6121;
879.6000;0.6195;0.6197;
879.9000;0.6195;0.6172;
880.2000;0.6195;0.6121;
880.5000;0.6203;0.6222;
880.8000;0.6195;0.6172;
881.1000;0.6186;0.6197;
881.4000;0.6235;0.6272;
881.7000;0.6211;0.6146;
882.0000;0.6195;0.6121;
882.3000;0.6243;0.6222;
882.6000;0.6121;0.5844;
882.9000;0.6178;0.5920;
883.2000;0.6186;0.5945;
883.5000;0.6178;0.6121;
883.8000;0.6186;0.6197;
884.1000;0.6178;0.6096;
884.4000;0.6186;0.6096;
884.7000;0.6186;0.6071;
885.0000;0.6195;0.6071;
885.3000;0.6195;0.6146;
885.6000;0.6178;0.6172;
885.9000;0.6170;0.6146;
886.2000;0.6219;0.6297;
886.5000;0.6170;0.6146;
886.8000;0.6186;0.6222;
887.1000;0.6154;0.6197;
887.4000;0.6146;0.6197;
887.7000;0.6186;0.6272;
888.0000;0.6178;0.6247;
888.3000;0.6162;0.6172;
888.6000;0.6186;0.6222;
888.9000;0.6178;0.6121;
889.2000;0.6195;0.6020;
889.5000;0.6162;0.5970;
889.8000;0.6178;0.6020;
890.1000;0.6178;0.5995;
890.4000;0.6105;0.5844;
890.7000;0.6170;0.5970;
891.0000;0.6195;0.6020;
891.3000;0.6154;0.5945;
891.6000;0.6178;0.5995;
891.9000;0.6170;0.5945;
892.2000;0.6186;0.5995;
892.5000;0.6154;0.5920;
892.8000;0.6178;0.6096;
893.1000;0.6178;0.6096;
893.4000;0.6170;0.5995;
893.7000;0.6178;0.5945;
894.0000;0.6178;0.5995;
894.3000;0.6170;0.6020;
894.6000;0.6162;0.6020;
894.9000;0.6170;0.5970;
895.2000;0.6154;0.5920;
895.5000;0.6186;0.6046;
895.8000;0.6146;0.5970;
896.1000;0.6154;0.6071;
896.4000;0.6162;0.6247;
896.7000;0.6186;0.6197;
897.0000;0.6170;0.6071;
897.3000;0.6170;0.6020;
897.6000;0.6219;0.6071;
897.9000;0.6162;0.5894;
898.2000;0.6162;0.5844;
898.5000;0.6146;0.5693;
898.8000;0.6170;0.5794;
899.1000;0.6170;0.5844;
899.4000;0.6178;0.5844;
899.7000;0.6170;0.5743;
900.0000;0.6162;0.5743;
900.3000;0.6186;0.5794;
900.6000;0.6170;0.5743;
900.9000;0.6170;0.5819;
901.2000;0.6081;0.5592;
901.5000;0.6178;0.5819;
901.8000;0.6129;0.5743;
902.1000;0.6170;0.5970;
902.4000;0.6146;0.5844;
902.7000;0.6162;0.5869;
903.0000;0.6170;0.5819;
903.3000;0.6186;0.5844;
903.6000;0.6186;0.5844;
903.9000;0.6170;0.5869;
904.2000;0.6162;0.5920;
904.5000;0.6146;0.5970;
904.8000;0.6186;0.6071;
905.1000;0.6154;0.5995;
905.4000;0.6162;0.5945;
905.7000;0.6178;0.5920;
906.0000;0.6162;0.5869;
906.3000;0.6146;0.5869;
906.6000;0.6146;0.5869;
906.9000;0.6170;0.5970;
907.2000;0.6138;0.5869;
907.5000;0.6154;0.5945;
907.8000;0.6178;0.5995;
908.1000;0.6170;0.6046;
908.4000;0.6154;0.5970;
908.7000;0.6170;0.6020;
909.0000;0.6162;0.5995;
909.3000;0.6162;0.5920;
909.6000;0.6146;0.5970;
909.9000;0.6154;0.5970;
910.2000;0.6162;0.5945;
910.5000;0.6170;0.5920;
910.8000;0.6162;0.5869;
911.1000;0.6105;0.5718;
911.4000;0.6129;0.5869;
911.7000;0.6154;0.5869;
912.0000;0.6146;0.5844;
912.3000;0.6203;0.5970;
912.6000;0.6219;0.6020;
912.9000;0.6146;0.5844;
913.2000;0.6162;0.5869;
913.5000;0.6154;0.5869;
913.8000;0.6154;0.5894;
914.1000;0.6146;0.5970;
914.4000;0.6146;0.5945;
914.7000;0.6162;0.5945;
915.0000;0.6162;0.5920;
915.3000;0.6162;0.5945;
915.6000;0.6170;0.6071;
915.9000;0.6162;0.6121;
916.2000;0.6138;0.6071;
916.5000;0.6138;0.6121;
916.8000;0.6129;0.6146;
917.1000;0.6154;0.6172;
917.4000;0.6154;0.6172;
917.7000;0.6129;0.6172;
918.0000;0.6146;0.6172;
918.3000;0.6154;0.6197;
918.6000;0.6154;0.6146;
918.9000;0.6146;0.6020;
919.2000;0.6162;0.5970;
919.5000;0.6105;0.5844;
919.8000;0.6195;0.6046;
920.1000;0.6146;0.5995;
920.4000;0.6154;0.5995;
920.7000;0.6146;0.5970;
921.0000;0.6154;0.5970;
921.3000;0.6089;0.5794;
921.6000;0.6138;0.5920;
921.9000;0.6146;0.5970;
922.2000;0.6170;0.5945;
922.5000;0.6146;0.5920;
922.8000;0.6146;0.5945;
923.1000;0.6146;0.5894;
923.4000;0.6113;0.5894;
923.7000;0.6146;0.6046;
924.0000;0.6146;0.5970;
924.3000;0.6138;0.6020;
924.6000;0.6146;0.6096;
924.9000;0.6129;0.6096;
925.2000;0.6138;0.6096;
925.5000;0.6146;0.6071;
925.8000;0.6138;0.6020;
926.1000;0.6138;0.5995;
926.4000;0.6097;0.5819;
926.7000;0.6129;0.5844;
927.0000;0.6146;0.5869;
927.3000;0.6219;0.6046;
927.6000;0.6178;0.5945;
927.9000;0.6089;0.5718;
928.2000;0.6138;0.5945;
928.5000;0.6129;0.6020;
928.8000;0.6146;0.6020;
929.1000;0.6129;0.5995;
929.4000;0.6129;0.5995;
929.7000;0.6138;0.6046;
930.0000;0.6138;0.6046;
930.3000;0.6129;0.6046;
930.6000;0.6146;0.6046;
930.9000;0.6113;0.5995;
931.2000;0.6138;0.6046;
931.5000;0.6129;0.6020;
931.8000;0.6138;0.5995;
932.1000;0.6129;0.5970;
932.4000;0.6129;0.5995;
932.7000;0.6138;0.6020;
933.0000;0.6129;0.6071;
933.3000;0.6121;0.6121;
933.6000;0.6138;0.6096;
933.9000;0.6121;0.6046;
934.2000;0.6129;0.6046;
934.5000;0.6113;0.5945;
934.8000;0.6113;0.5970;
935.1000;0.6129;0.5945;
935.4000;0.6105;0.5920;
935.7000;0.6121;0.5995;
936.0000;0.6113;0.5869;
936.3000;0.6121;0.5819;
936.6000;0.6138;0.5844;
936.9000;0.6129;0.5819;
937.2000;0.6138;0.5743;
937.5000;0.6121;0.5844;
937.8000;0.6113;0.5819;
938.1000;0.6129;0.5945;
938.4000;0.6105;0.5869;
938.7000;0.6129;0.5995;
939.0000;0.6129;0.6046;
939.3000;0.6121;0.6071;
939.6000;0.6129;0.6096;
939.9000;0.6129;0.6096;
940.2000;0.6129;0.6071;
940.5000;0.6129;0.6121;
940.8000;0.6129;0.6121;
941.1000;0.6138;0.6096;
941.4000;0.6138;0.6096;
941.7000;0.6129;0.6071;
942.0000;0.6138;0.6146;
942.3000;0.6121;0.6096;
942.6000;0.6146;0.6146;
942.9000;0.6121;0.5945;
943.2000;0.6121;0.5920;
943.5000;0.6138;0.5945;
943.8000;0.6089;0.5794;
944.1000;0.6121;0.5894;
944.4000;0.6121;0.5920;
944.7000;0.6097;0.5894;
945.0000;0.6138;0.6046;
945.3000;0.6105;0.5995;
945.6000;0.6121;0.5970;
945.9000;0.6138;0.5995;
946.2000;0.6138;0.5869;
946.5000;0.6129;0.5844;
946.8000;0.6138;0.5945;
947.1000;0.6138;0.5894;
947.4000;0.6146;0.6020;
947.7000;0.6129;0.5995;
948.0000;0.6121;0.6020;
948.3000;0.6121;0.6020;
948.6000;0.6129;0.6046;
948.9000;0.6129;0.5970;
949.2000;0.6121;0.5894;
949.5000;0.6138;0.6046;
949.8000;0.6113;0.5970;
950.1000;0.6121;0.5995;
950.4000;0.6195;0.6121;
950.7000;0.6113;0.5970;
951.0000;0.6113;0.5995;
951.3000;0.6121;0.5995;
951.6000;0.6138;0.6046;
951.9000;0.6121;0.6020;
952.2000;0.6121;0.6020;
952.5000;0.6146;0.6096;
952.8000;0.6146;0.6096;
953.1000;0.6121;0.5970;
953.4000;0.6146;0.6046;
953.7000;0.6138;0.5970;
954.0000;0.6129;0.6020;
954.3000;0.6219;0.6172;
954.6000;0.6138;0.5970;
954.9000;0.6056;0.5844;
955.2000;0.6129;0.6020;
955.5000;0.6121;0.6096;
955.8000;0.6121;0.6071;
956.1000;0.6121;0.5970;
956.4000;0.6113;0.5945;
956.7000;0.6129;0.5995;
957.0000;0.6113;0.5920;
957.3000;0.6121;0.5894;
957.6000;0.6121;0.5945;
957.9000;0.6129;0.6096;
958.2000;0.6121;0.6121;
958.5000;0.6170;0.6272;
958.8000;0.6121;0.6146;
959.1000;0.6113;0.6172;
959.4000;0.6113;0.6071;
959.7000;0.6113;0.6096;
960.0000;0.6113;0.6172;
960.3000;0.6113;0.6272;
960.6000;0.6056;0.6096;
960.9000;0.6105;0.6172;
961.2000;0.6105;0.6247;
961.5000;0.6105;0.6146;
961.8000;0.6129;0.6197;
962.1000;0.6113;0.6146;
962.4000;0.6113;0.6121;
962.7000;0.6113;0.6020;
963.0000;0.6121;0.6146;
963.3000;0.6113;0.6046;
963.6000;0.6113;0.6096;
963.9000;0.6121;0.6172;
964.2000;0.6129;0.6272;
964.5000;0.6121;0.6247;
964.8000;0.6105;0.6197;
965.1000;0.6097;0.6197;
965.4000;0.6097;0.6272;
965.7000;0.6113;0.6197;
966.0000;0.6113;0.6222;
966.3000;0.6089;0.6046;
966.6000;0.6121;0.6046;
966.9000;0.6105;0.6020;
967.2000;0.6105;0.5970;
967.5000;0.6121;0.5945;
967.8000;0.6105;0.5945;
968.1000;0.6113;0.5945;
968.4000;0.6121;0.5920;
968.7000;0.6113;0.5894;
969.0000;0.6113;0.5945;
969.3000;0.6113;0.6020;
969.6000;0.6121;0.6046;
969.9000;0.6105;0.6020;
970.2000;0.6056;0.5920;
970.5000;0.6113;0.6020;
970.8000;0.6113;0.5894;
971.1000;0.6105;0.5844;
971.4000;0.6105;0.5844;
971.7000;0.6105;0.5920;
972.0000;0.6162;0.6096;
972.3000;0.6097;0.6046;
972.6000;0.6081;0.5995;
972.9000;0.6113;0.6071;
973.2000;0.6105;0.6071;
973.5000;0.6121;0.6121;
973.8000;0.6113;0.6172;
974.1000;0.6105;0.6197;
974.4000;0.6081;0.6121;
974.7000;0.6113;0.6146;
975.0000;0.6097;0.6071;
975.3000;0.6081;0.6046;
975.6000;0.6121;0.6146;
975.9000;0.6089;0.6071;
976.2000;0.6105;0.6071;
976.5000;0.6048;0.5869;
976.8000;0.6113;0.6096;
977.1000;0.6105;0.6071;
977.4000;0.6129;0.6172;
977.7000;0.6097;0.6071;
978.0000;0.6105;0.6071;
978.3000;0.6089;0.6020;
978.6000;0.6097;0.6071;
978.9000;0.6146;0.6197;
979.2000;0.6032;0.5945;
979.5000;0.6113;0.6096;
979.8000;0.6105;0.6020;
980.1000;0.6097;0.5894;
980.4000;0.6081;0.5945;
980.7000;0.6089;0.6046;
981.0000;0.6089;0.6020;
981.3000;0.6081;0.5970;
981.6000;0.6097;0.6096;
981.9000;0.6105;0.6096;
982.2000;0.6186;0.6323;
982.5000;0.6129;0.6146;
982.8000;0.6105;0.6020;
983.1000;0.6097;0.6071;
983.4000;0.6113;0.6172;
983.7000;0.6113;0.6146;
984.0000;0.6105;0.6071;
984.3000;0.6097;0.5995;
984.6000;0.6178;0.6172;
984.9000;0.6097;0.5945;
985.2000;0.6089;0.5995;
985.5000;0.6097;0.6096;
985.8000;0.6089;0.6121;
986.1000;0.6097;0.6046;
986.4000;0.6097;0.6071;
986.7000;0.6113;0.5970;
987.0000;0.6097;0.5920;
987.3000;0.6097;0.5945;
987.6000;0.6089;0.5920;
987.9000;0.6089;0.5920;
988.2000;0.6089;0.5945;
988.5000;0.6089;0.5920;
988.8000;0.6089;0.5920;
989.1000;0.6072;0.5945;
989.4000;0.6097;0.6172;
989.7000;0.6097;0.6197;
990.0000;0.6089;0.6222;
990.3000;0.6105;0.6197;
990.6000;0.6081;0.6071;
990.9000;0.6097;0.6046;
991.2000;0.6081;0.5995;
991.5000;0.6089;0.6020;
991.8000;0.6081;0.5995;
992.1000;0.6097;0.5970;
992.4000;0.6097;0.6046;
992.7000;0.6146;0.6197;
993.0000;0.6121;0.6071;
993.3000;0.6040;0.5894;
993.6000;0.6146;0.6197;
993.9000;0.6097;0.6146;
994.2000;0.6089;0.6146;
994.5000;0.6081;0.6096;
994.8000;0.6089;0.6020;
995.1000;0.6089;0.6046;
995.4000;0.6064;0.5995;
995.7000;0.6064;0.5970;
996.0000;0.6072;0.5920;
996.3000;0.6089;0.5970;
996.6000;0.6081;0.5894;
996.9000;0.6097;0.5869;
997.2000;0.6105;0.5945;
997.5000;0.6089;0.5894;
997.8000;0.6105;0.5920;
998.1000;0.6081;0.5920;
998.4000;0.6097;0.5945;
998.7000;0.6072;0.5970;
999.0000;0.6081;0.5970;
999.3000;0.6089;0.6020;
999.6000;0.6015;0.5920;
999.9000;0.6081;0.6146;
1000.2000;0.6089;0.6096;
1000.5000;0.6072;0.6121;
1000.8000;0.6186;0.6323;
1001.1000;0.6089;0.6046;
1001.4000;0.6113;0.6096;
1001.7000;0.6024;0.5844;
1002.0000;0.6089;0.6020;
1002.3000;0.6089;0.5920;
1002.6000;0.6089;0.5945;
1002.9000;0.6097;0.5945;
1003.2000;0.6064;0.5844;
1003.5000;0.6097;0.5945;
1003.8000;0.6105;0.6020;
1004.1000;0.6056;0.5995;
1004.4000;0.6081;0.6121;
1004.7000;0.6081;0.6247;
1005.0000;0.6072;0.6222;
1005.3000;0.6089;0.6222;
1005.6000;0.6064;0.6071;
1005.9000;0.6072;0.6096;
1006.2000;0.6089;0.6172;
1006.5000;0.6072;0.6222;
1006.8000;0.6097;0.6197;
1007.1000;0.6105;0.6272;
1007.4000;0.6097;0.6297;
1007.7000;0.6072;0.6172;
1008.0000;0.6081;0.6197;
1008.3000;0.6089;0.6222;
1008.6000;0.6081;0.6172;
1008.9000;0.6081;0.6096;
1009.2000;0.6089;0.6071;
1009.5000;0.6081;0.5995;
1009.8000;0.6089;0.5970;
1010.1000;0.6105;0.5970;
1010.4000;0.6105;0.5970;
1010.7000;0.6072;0.5894;
1011.0000;0.6072;0.5894;
1011.3000;0.6089;0.5970;
1011.6000;0.6081;0.6020;
1011.9000;0.6072;0.5945;
1012.2000;0.6089;0.5945;
1012.5000;0.6081;0.5970;
1012.8000;0.6064;0.5920;
1013.1000;0.6064;0.5995;
1013.4000;0.6072;0.6020;
1013.7000;0.6081;0.6020;
1014.0000;0.6048;0.5920;
1014.3000;0.6064;0.5894;
1014.6000;0.6032;0.5894;
1014.9000;0.6056;0.6020;
1015.2000;0.6105;0.6121;
1015.5000;0.6048;0.6046;
1015.8000;0.6072;0.6046;
1016.1000;0.6064;0.6020;
1016.4000;0.6081;0.5995;
1016.7000;0.6064;0.6046;
1017.0000;0.6097;0.6172;
1017.3000;0.6072;0.6046;
1017.6000;0.6064;0.6046;
1017.9000;0.6089;0.6071;
1018.2000;0.6048;0.5995;
1018.5000;0.6064;0.6046;
1018.8000;0.6097;0.6121;
1019.1000;0.6081;0.6071;
1019.4000;0.6064;0.6096;
1019.7000;0.6040;0.6046;
1020.0000;0.6081;0.6096;
1020.3000;0.6015;0.5970;
1020.6000;0.6089;0.6046;
1020.9000;0.6040;0.6020;
1021.2000;0.6081;0.6071;
1021.5000;0.6097;0.6071;
1021.8000;0.6081;0.6071;
1022.1000;0.6089;0.6146;
1022.4000;0.6072;0.6172;
1022.7000;0.6072;0.6121;
1023.0000;0.6089;0.6197;
1023.3000;0.6024;0.6046;
1023.6000;0.6007;0.5945;
1023.9000;0.6048;0.6046;
1024.2000;0.6081;0.6096;
1024.5000;0.6032;0.6020;
1024.8000;0.6072;0.6071;
1025.1000;0.6081;0.5970;
1025.4000;0.6072;0.5970;
1025.7000;0.6081;0.5945;
1026.0000;0.6064;0.5995;
1026.3000;0.6089;0.6020;
1026.6000;0.6081;0.5970;
1026.9000;0.6064;0.6046;
1027.2000;0.6089;0.6172;
1027.5000;0.6072;0.6172;
1027.8000;0.6056;0.6096;
1028.1000;0.6081;0.6046;
1028.4000;0.6072;0.6020;
1028.7000;0.6081;0.6071;
1029.0000;0.6072;0.6096;
1029.3000;0.6056;0.6046;
1029.6000;0.6064;0.6020;
1029.9000;0.6048;0.6020;
1030.2000;0.6056;0.6096;
1030.5000;0.6072;0.6172;
1030.8000;0.6064;0.6222;
1031.1000;0.6040;0.6222;
1031.4000;0.6072;0.6197;
1031.7000;0.6081;0.6172;
1032.0000;0.6064;0.6222;
1032.3000;0.6072;0.6172;
1032.6000;0.6081;0.6197;
1032.9000;0.6064;0.6020;
1033.2000;0.6097;0.6121;
1033.5000;0.6064;0.6222;
1033.8000;0.6081;0.6247;
1034.1000;0.6097;0.6247;
1034.4000;0.6072;0.6197;
1034.7000;0.6081;0.6297;
1035.0000;0.6064;0.6272;
1035.3000;0.6064;0.6297;
1035.6000;0.6056;0.6197;
1035.9000;0.6064;0.6197;
1036.2000;0.6032;0.6096;
1036.5000;0.6056;0.6121;
1036.8000;0.6072;0.6096;
1037.1000;0.6032;0.6020;
1037.4000;0.6064;0.6096;
1037.7000;0.6056;0.6096;
1038.0000;0.6040;0.5995;
1038.3000;0.6072;0.6222;
1038.6000;0.6048;0.6172;
1038.9000;0.6056;0.6272;
1039.2000;0.6040;0.6222;
1039.5000;0.6162;0.6524;
1039.8000;0.6064;0.6121;
1040.1000;0.6032;0.5970;
1040.4000;0.6081;0.6096;
1040.7000;0.6072;0.6020;
1041.0000;0.6064;0.6046;
1041.3000;0.6064;0.5995;
1041.6000;0.6064;0.6071;
1041.9000;0.6146;0.6297;
1042.2000;0.6064;0.6046;
1042.5000;0.6064;0.6046;
1042.8000;0.6048;0.5995;
1043.1000;0.6064;0.6046;
1043.4000;0.6064;0.6020;
1043.7000;0.6056;0.6071;
1044.0000;0.6064;0.6071;
1044.3000;0.6064;0.5995;
1044.6000;0.6064;0.6020;
1044.9000;0.6064;0.6020;
1045.2000;0.6056;0.5970;
1045.5000;0.6064;0.6071;
1045.8000;0.6056;0.6146;
1046.1000;0.6064;0.6172;
1046.4000;0.6056;0.6096;
1046.7000;0.6048;0.6020;
1047.0000;0.6048;0.6121;
1047.3000;0.6064;0.6146;
1047.6000;0.6056;0.6146;
1047.9000;0.6048;0.6146;
1048.2000;0.6048;0.6146;
1048.5000;0.6064;0.6172;
1048.8000;0.6032;0.6046;
1049.1000;0.6048;0.6071;
1049.4000;0.6040;0.6046;
1049.7000;0.6064;0.6197;
1050.0000;0.6056;0.6222;
1050.3000;0.6040;0.6172;
1050.6000;0.6048;0.6146;
1050.9000;0.6040;0.6146;
1051.2000;0.6056;0.6247;
1051.5000;0.6064;0.6197;
1051.8000;0.6056;0.6172;
1052.1000;0.6064;0.6272;
1052.4000;0.6048;0.6272;
1052.7000;0.6056;0.6297;
1053.0000;0.6015;0.6096;
1053.3000;0.6056;0.6172;
1053.6000;0.6048;0.6121;
1053.9000;0.6064;0.6146;
1054.2000;0.6040;0.6020;
1054.5000;0.6048;0.6020;
1054.8000;0.6040;0.5995;
1055.1000;0.6056;0.5970;
1055.4000;0.6129;0.6096;
1055.7000;0.6072;0.5995;
1056.0000;0.6072;0.6071;
1056.3000;0.6056;0.5995;
1056.6000;0.6064;0.5970;
1056.9000;0.6040;0.5970;
1057.2000;0.6056;0.6020;
1057.5000;0.6056;0.6046;
1057.8000;0.6040;0.5995;
1058.1000;0.6048;0.5945;
1058.4000;0.6048;0.5945;
1058.7000;0.6105;0.6020;
1059.0000;0.6072;0.5945;
1059.3000;0.6064;0.5970;
1059.6000;0.6072;0.6046;
1059.9000;0.6072;0.6046;
1060.2000;0.6056;0.6146;
1060.5000;0.6040;0.6197;
1060.8000;0.6056;0.6222;
1061.1000;0.6056;0.6323;
1061.4000;0.6048;0.6297;
1061.7000;0.6048;0.6272;
1062.0000;0.6048;0.6297;
1062.3000;0.6056;0.6247;
1062.6000;0.6056;0.6272;
1062.9000;0.6040;0.6197;
1063.2000;0.5999;0.6020;
1063.5000;0.6056;0.6172;
1063.8000;0.6072;0.6247;
1064.1000;0.6056;0.6297;
1064.4000;0.6129;0.6499;
1064.7000;0.6064;0.6272;
1065.0000;0.6097;0.6297;
1065.3000;0.6064;0.6172;
1065.6000;0.6097;0.6297;
1065.9000;0.6032;0.6247;
1066.2000;0.6056;0.6323;
1066.5000;0.6056;0.6247;
1066.8000;0.6064;0.6272;
1067.1000;0.6040;0.6222;
1067.4000;0.6064;0.6272;
1067.7000;0.6064;0.6348;
1068.0000;0.6056;0.6272;
1068.3000;0.6024;0.6172;
1068.6000;0.6056;0.6323;
1068.9000;0.6056;0.6373;
1069.2000;0.6048;0.6449;
1069.5000;0.6040;0.6373;
1069.8000;0.6040;0.6348;
1070.1000;0.6138;0.6625;
1070.4000;0.6121;0.6499;
1070.7000;0.6056;0.6323;
1071.0000;0.6048;0.6222;
1071.3000;0.6056;0.6197;
1071.6000;0.6056;0.6197;
1071.9000;0.6032;0.6172;
1072.2000;0.6048;0.6146;
1072.5000;0.6056;0.6172;
1072.8000;0.6056;0.6197;
1073.1000;0.6056;0.6222;
1073.4000;0.6032;0.6121;
1073.7000;0.6048;0.6146;
1074.0000;0.6048;0.6222;
1074.3000;0.6048;0.6247;
1074.6000;0.6064;0.6172;
1074.9000;0.6048;0.6121;
1075.2000;0.6056;0.6146;
1075.5000;0.6032;0.6046;
1075.8000;0.6056;0.6146;
1076.1000;0.6032;0.6096;
1076.4000;0.6032;0.6071;
1076.7000;0.6032;0.5970;
1077.0000;0.6040;0.6020;
1077.3000;0.6048;0.6020;
1077.6000;0.6040;0.6046;
1077.9000;0.6040;0.6071;
1078.2000;0.6032;0.6071;
1078.5000;0.6040;0.6096;
1078.8000;0.6113;0.6297;
1079.1000;0.6056;0.6222;
1079.4000;0.6048;0.6197;
1079.7000;0.6056;0.6146;
1080.0000;0.6040;0.6096;
1080.3000;0.6072;0.6071;
1080.6000;0.6040;0.6146;
1080.9000;0.6032;0.6046;
1081.2000;0.6032;0.6046;
1081.5000;0.6056;0.6020;
1081.8000;0.6048;0.5894;
1082.1000;0.6015;0.5894;
1082.4000;0.6040;0.6071;
1082.7000;0.6040;0.6020;
1083.0000;0.6064;0.6121;
1083.3000;0.6048;0.6222;
1083.6000;0.6040;0.6197;
1083.9000;0.6056;0.6247;
1084.2000;0.6064;0.6272;
1084.5000;0.6032;0.6222;
1084.8000;0.6032;0.6096;
1085.1000;0.6081;0.6172;
1085.4000;0.6064;0.6096;
1085.7000;0.6056;0.6046;
1086.0000;0.6040;0.6046;
1086.3000;0.6048;0.6020;
1086.6000;0.6007;0.6020;
1086.9000;0.6032;0.6172;
1087.2000;0.6032;0.6222;
1087.5000;0.6024;0.6272;
1087.8000;0.6040;0.6172;
1088.1000;0.6040;0.6172;
1088.4000;0.6032;0.6121;
1088.7000;0.6024;0.6121;
1089.0000;0.6024;0.6146;
1089.3000;0.6040;0.6247;
1089.6000;0.6048;0.6272;
1089.9000;0.6032;0.6197;
1090.2000;0.6040;0.6197;
1090.5000;0.6048;0.6197;
1090.8000;0.5999;0.6222;
1091.1000;0.6048;0.6272;
1091.4000;0.6032;0.6272;
1091.7000;0.6056;0.6297;
1092.0000;0.6032;0.6222;
1092.3000;0.6015;0.6222;
1092.6000;0.6024;0.6272;
1092.9000;0.6040;0.6297;
1093.2000;0.6032;0.6247;
1093.5000;0.6056;0.6272;
1093.8000;0.6040;0.6197;
1094.1000;0.6048;0.6121;
1094.4000;0.6048;0.6172;
1094.7000;0.6040;0.6146;
1095.0000;0.6032;0.6247;
1095.3000;0.6048;0.6272;
1095.6000;0.6032;0.6222;
1095.9000;0.6097;0.6297;
1096.2000;0.6040;0.6172;
1096.5000;0.6064;0.6222;
1096.8000;0.6040;0.6146;
1097.1000;0.6048;0.6247;
1097.4000;0.6089;0.6373;
1097.7000;0.6032;0.6146;
1098.0000;0.6040;0.6146;
1098.3000;0.6048;0.6146;
1098.6000;0.6048;0.6096;
1098.9000;0.6064;0.6096;
1099.2000;0.6040;0.6071;
1099.5000;0.6056;0.6121;
1099.8000;0.6048;0.6046;
1100.1000;0.6032;0.6096;
1100.4000;0.6040;0.6071;
1100.7000;0.6056;0.6096;
1101.0000;0.6056;0.6071;
1101.3000;0.6032;0.6121;
1101.6000;0.6064;0.6172;
1101.9000;0.6040;0.6071;
1102.2000;0.6048;0.6046;
1102.5000;0.6040;0.6020;
1102.8000;0.6007;0.6020;
1103.1000;0.6032;0.6096;
1103.4000;0.6032;0.6096;
1103.7000;0.6024;0.6197;
1104.0000;0.6048;0.6222;
1104.3000;0.6056;0.6172;
1104.6000;0.6048;0.6247;
1104.9000;0.6064;0.6272;
1105.2000;0.6105;0.6423;
1105.5000;0.6056;0.6222;
1105.8000;0.6056;0.6272;
1106.1000;0.6072;0.6297;
1106.4000;0.6015;0.6172;
1106.7000;0.6032;0.6222;
1107.0000;0.6048;0.6172;
1107.3000;0.6015;0.6222;
1107.6000;0.6032;0.6348;
1107.9000;0.6032;0.6348;
1108.2000;0.6040;0.6348;
1108.5000;0.6015;0.6272;
1108.8000;0.6024;0.6247;
1109.1000;0.6032;0.6323;
1109.4000;0.6040;0.6222;
1109.7000;0.6048;0.6323;
1110.0000;0.6040;0.6323;
1110.3000;0.6024;0.6348;
1110.6000;0.6032;0.6348;
1110.9000;0.6032;0.6348;
1111.2000;0.6048;0.6348;
1111.5000;0.6040;0.6247;
1111.8000;0.6024;0.6272;
1112.1000;0.6032;0.6247;
1112.4000;0.6024;0.6222;
1112.7000;0.6015;0.6146;
1113.0000;0.6007;0.6121;
1113.3000;0.6032;0.6247;
1113.6000;0.6032;0.6172;
1113.9000;0.6024;0.6121;
1114.2000;0.6024;0.6071;
1114.5000;0.6024;0.6071;
1114.8000;0.6048;0.6121;
1115.1000;0.6015;0.5970;
1115.4000;0.6024;0.6020;
1115.7000;0.6040;0.5995;
1116.0000;0.6040;0.6020;
1116.3000;0.6048;0.5995;
1116.6000;0.6024;0.5970;
1116.9000;0.6015;0.5920;
1117.2000;0.6032;0.5894;
1117.5000;0.6056;0.5970;
1117.8000;0.6015;0.5970;
1118.1000;0.6040;0.6046;
1118.4000;0.6024;0.6071;
1118.7000;0.6032;0.6222;
1119.0000;0.5975;0.6071;
1119.3000;0.6040;0.6222;
1119.6000;0.6032;0.6222;
1119.9000;0.6048;0.6247;
1120.2000;0.6032;0.6146;
1120.5000;0.6032;0.6172;
1120.8000;0.6032;0.6146;
1121.1000;0.6015;0.6121;
1121.4000;0.6007;0.6071;
1121.7000;0.6032;0.6071;
1122.0000;0.6032;0.6146;
1122.3000;0.6024;0.6071;
1122.6000;0.6032;0.5945;
1122.9000;0.6024;0.5869;
1123.2000;0.6024;0.6020;
1123.5000;0.6032;0.6046;
1123.8000;0.6032;0.5995;
1124.1000;0.6015;0.5995;
1124.4000;0.6024;0.5970;
1124.7000;0.6032;0.5970;
1125.0000;0.6032;0.5995;
1125.3000;0.6024;0.6046;
1125.6000;0.6032;0.5970;
1125.9000;0.6121;0.6096;
1126.2000;0.6032;0.5869;
1126.5000;0.5983;0.5769;
1126.8000;0.6015;0.5920;
1127.1000;0.6024;0.5995;
1127.4000;0.6040;0.6071;
1127.7000;0.6024;0.6121;
1128.0000;0.6024;0.6121;
1128.3000;0.6040;0.6071;
1128.6000;0.6024;0.6096;
1128.9000;0.6024;0.6121;
1129.2000;0.6024;0.6172;
1129.5000;0.6015;0.6172;
1129.8000;0.6040;0.6272;
1130.1000;0.6081;0.6423;
1130.4000;0.6040;0.6398;
1130.7000;0.6007;0.6272;
1131.0000;0.6072;0.6423;
1131.3000;0.6040;0.6272;
1131.6000;0.6024;0.6222;
1131.9000;0.6032;0.6197;
1132.2000;0.5991;0.6096;
1132.5000;0.6024;0.6172;
1132.8000;0.6024;0.6197;
1133.1000;0.6024;0.6146;
1133.4000;0.6015;0.6146;
1133.7000;0.6024;0.6121;
1134.0000;0.6015;0.6146;
1134.3000;0.6007;0.6197;
1134.6000;0.6015;0.6197;
1134.9000;0.6024;0.6197;
1135.2000;0.6064;0.6272;
1135.5000;0.6040;0.6197;
1135.8000;0.6024;0.6096;
1136.1000;0.6040;0.6172;
1136.4000;0.6040;0.6247;
1136.7000;0.6032;0.6222;
1137.0000;0.6040;0.6222;
1137.3000;0.6015;0.6172;
1137.6000;0.6040;0.6222;
1137.9000;0.6032;0.6247;
1138.2000;0.6072;0.6423;
1138.5000;0.5950;0.6121;
1138.8000;0.6024;0.6146;
1139.1000;0.6015;0.6146;
1139.4000;0.6007;0.6121;
1139.7000;0.6015;0.6096;
1140.0000;0.6015;0.6096;
1140.3000;0.6040;0.6146;
1140.6000;0.6032;0.6046;
1140.9000;0.6024;0.6046;
1141.2000;0.6040;0.6071;
1141.5000;0.6048;0.6121;
1141.8000;0.6024;0.6146;
1142.1000;0.6048;0.6197;
1142.4000;0.6032;0.6222;
1142.7000;0.6032;0.6146;
1143.0000;0.6064;0.6247;
1143.3000;0.6024;0.6222;
1143.6000;0.6015;0.6172;
1143.9000;0.6048;0.6272;
1144.2000;0.6015;0.6272;
1144.5000;0.6040;0.6297;
1144.8000;0.6024;0.6247;
1145.1000;0.6007;0.6172;
1145.4000;0.5999;0.6197;
1145.7000;0.6015;0.6272;
1146.0000;0.6007;0.6222;
1146.3000;0.6040;0.6272;
1146.6000;0.6040;0.6222;
1146.9000;0.6015;0.6121;
1147.2000;0.6024;0.6121;
1147.5000;0.6024;0.6096;
1147.8000;0.6032;0.6121;
1148.1000;0.6072;0.6297;
1148.4000;0.6007;0.6121;
1148.7000;0.6007;0.6096;
1149.0000;0.6032;0.6197;
1149.3000;0.6007;0.6297;
1149.6000;0.6024;0.6348;
1149.9000;0.6032;0.6272;
1150.2000;0.6007;0.6172;
1150.5000;0.6040;0.6172;
1150.8000;0.6040;0.6222;
1151.1000;0.6024;0.6272;
1151.4000;0.6015;0.6222;
1151.7000;0.6024;0.6247;
1152.0000;0.6048;0.6297;
1152.3000;0.6040;0.6247;
1152.6000;0.6024;0.6172;
1152.9000;0.6024;0.6222;
1153.2000;0.6024;0.6247;
1153.5000;0.6015;0.6247;
1153.8000;0.6015;0.6272;
1154.1000;0.6015;0.6247;
1154.4000;0.6032;0.6398;
1154.7000;0.5967;0.6323;
1155.0000;0.6064;0.6474;
1155.3000;0.6015;0.6423;
1155.6000;0.5983;0.6348;
1155.9000;0.5999;0.6297;
1156.2000;0.5999;0.6247;
1156.5000;0.6072;0.6398;
1156.8000;0.6032;0.6323;
1157.1000;0.6007;0.6323;
1157.4000;0.5991;0.6323;
1157.7000;0.5999;0.6373;
1158.0000;0.5983;0.6348;
1158.3000;0.6048;0.6499;
1158.6000;0.6024;0.6373;
1158.9000;0.6007;0.6297;
1159.2000;0.5942;0.6096;
1159.5000;0.6015;0.6297;
1159.8000;0.6024;0.6272;
1160.1000;0.6015;0.6247;
1160.4000;0.6072;0.6398;
1160.7000;0.6015;0.6297;
1161.0000;0.6015;0.6323;
1161.3000;0.6015;0.6197;
1161.6000;0.6040;0.6222;
1161.9000;0.6024;0.6172;
1162.2000;0.6032;0.6172;
1162.5000;0.6007;0.6146;
1162.8000;0.6032;0.6222;
1163.1000;0.6040;0.6197;
1163.4000;0.6040;0.6197;
1163.7000;0.6032;0.6071;
1164.0000;0.6024;0.6096;
1164.3000;0.6024;0.6096;
1164.6000;0.5999;0.6146;
1164.9000;0.6007;0.6247;
1165.2000;0.6024;0.6197;
1165.5000;0.6024;0.6172;
1165.8000;0.6032;0.6096;
1166.1000;0.6015;0.6096;
1166.4000;0.6015;0.6020;
1166.7000;0.6072;0.6146;
1167.0000;0.6032;0.6020;
1167.3000;0.6015;0.5970;
1167.6000;0.6056;0.6071;
1167.9000;0.6024;0.5920;
1168.2000;0.6032;0.6046;
1168.5000;0.6007;0.6046;
1168.8000;0.6015;0.6121;
1169.1000;0.6015;0.6121;
1169.4000;0.6007;0.5995;
1169.7000;0.6024;0.5970;
1170.0000;0.6007;0.6020;
1170.3000;0.5999;0.6046;
1170.6000;0.5991;0.5995;
1170.9000;0.6056;0.6222;
1171.2000;0.6007;0.6146;
1171.5000;0.5999;0.6096;
1171.8000;0.6024;0.6096;
1172.1000;0.6040;0.6096;
1172.4000;0.6040;0.6071;
1172.7000;0.6032;0.6096;
1173.0000;0.6015;0.6096;
1173.3000;0.6015;0.6046;
1173.6000;0.5975;0.5920;
1173.9000;0.5991;0.6020;
1174.2000;0.6007;0.6096;
1174.5000;0.5999;0.6071;
1174.8000;0.6032;0.6121;
1175.1000;0.6007;0.6020;
1175.4000;0.6015;0.6121;
1175.7000;0.6024;0.6146;
1176.0000;0.6040;0.6272;
1176.3000;0.6040;0.6247;
1176.6000;0.6007;0.6222;
1176.9000;0.6024;0.6297;
1177.2000;0.6015;0.6197;
1177.5000;0.6015;0.6323;
1177.8000;0.6007;0.6373;
1178.1000;0.6015;0.6398;
1178.4000;0.6007;0.6373;
1178.7000;0.5999;0.6348;
1179.0000;0.6007;0.6398;
1179.3000;0.6007;0.6398;
1179.6000;0.6007;0.6398;
1179.9000;0.5999;0.6297;
1180.2000;0.5999;0.6323;
1180.5000;0.5999;0.6323;
1180.8000;0.6024;0.6449;
1181.1000;0.6015;0.6449;
1181.4000;0.6015;0.6323;
1181.7000;0.6015;0.6323;
1182.0000;0.6015;0.6247;
1182.3000;0.6024;0.6247;
1182.6000;0.6015;0.6197;
1182.9000;0.5991;0.6146;
1183.2000;0.5958;0.6071;
1183.5000;0.5999;0.6146;
1183.8000;0.6007;0.6247;
1184.1000;0.5975;0.6272;
1184.4000;0.5983;0.6323;
1184.7000;0.6007;0.6272;
1185.0000;0.5983;0.6272;
1185.3000;0.5999;0.6323;
1185.6000;0.5999;0.6272;
1185.9000;0.5975;0.6247;
1186.2000;0.6024;0.6373;
1186.5000;0.5999;0.6247;
1186.8000;0.6089;0.6499;
1187.1000;0.6007;0.6272;
1187.4000;0.6064;0.6449;
1187.7000;0.6007;0.6272;
1188.0000;0.5983;0.6146;
1188.3000;0.6024;0.6272;
1188.6000;0.5999;0.6272;
1188.9000;0.6007;0.6272;
1189.2000;0.5999;0.6323;
1189.5000;0.6072;0.6549;
1189.8000;0.6032;0.6423;
1190.1000;0.6040;0.6499;
1190.4000;0.6007;0.6449;
1190.7000;0.5999;0.6449;
1191.0000;0.6015;0.6474;
1191.3000;0.6015;0.6423;
1191.6000;0.6015;0.6398;
1191.9000;0.6007;0.6373;
1192.2000;0.6015;0.6323;
1192.5000;0.6007;0.6297;
1192.8000;0.6007;0.6297;
1193.1000;0.5958;0.6071;
1193.4000;0.6015;0.6172;
1193.7000;0.6072;0.6398;
1194.0000;0.6007;0.6222;
1194.3000;0.5967;0.6096;
1194.6000;0.5967;0.6172;
1194.9000;0.5999;0.6272;
1195.2000;0.5991;0.6197;
1195.5000;0.6048;0.6348;
1195.8000;0.6007;0.6222;
1196.1000;0.6015;0.6247;
1196.4000;0.5999;0.6222;
1196.7000;0.6015;0.6172;
1197.0000;0.6015;0.6146;
1197.3000;0.6040;0.6121;
1197.6000;0.6007;0.6046;
1197.9000;0.5999;0.6096;
1198.2000;0.6007;0.6146;
1198.5000;0.5999;0.6197;
1198.8000;0.6007;0.6172;
1199.1000;0.6015;0.6222;
1199.4000;0.6007;0.6222;
1199.7000;0.5999;0.6146;
1200.0000;0.6007;0.6222;
1200.3000;0.6015;0.6297;
1200.6000;0.5999;0.6247;
1200.9000;0.5999;0.6247;
1201.2000;0.6015;0.6247;
1201.5000;0.6040;0.6323;
1201.8000;0.6024;0.6297;
1202.1000;0.6015;0.6272;
1202.4000;0.6040;0.6348;
1202.7000;0.6024;0.6247;
1203.0000;0.6015;0.6272;
1203.3000;0.6015;0.6297;
1203.6000;0.6007;0.6272;
1203.9000;0.6007;0.6272;
1204.2000;0.6007;0.6272;
1204.5000;0.5983;0.6222;
1204.8000;0.5999;0.6172;
1205.1000;0.5999;0.6222;
1205.4000;0.5999;0.6197;
1205.7000;0.6007;0.6222;
1206.0000;0.5983;0.6172;
1206.3000;0.6056;0.6348;
1206.6000;0.6024;0.6121;
1206.9000;0.5999;0.6071;
1207.2000;0.5999;0.6071;
1207.5000;0.6024;0.6146;
1207.8000;0.6015;0.6121;
1208.1000;0.5999;0.5995;
1208.4000;0.5999;0.5970;
1208.7000;0.5991;0.5995;
1209.0000;0.5999;0.5945;
1209.3000;0.6007;0.5970;
1209.6000;0.6007;0.5920;
1209.9000;0.5999;0.5869;
1210.2000;0.6007;0.5920;
1210.5000;0.5983;0.5844;
1210.8000;0.6015;0.5970;
1211.1000;0.6007;0.6020;
1211.4000;0.6007;0.6121;
1211.7000;0.6024;0.6172;
1212.0000;0.5983;0.5995;
1212.3000;0.6007;0.6046;
1212.6000;0.6024;0.6121;
1212.9000;0.6015;0.6172;
1213.2000;0.6015;0.6172;
1213.5000;0.6024;0.6222;
1213.8000;0.6040;0.6172;
1214.1000;0.6056;0.6272;
1214.4000;0.6007;0.6096;
1214.7000;0.5999;0.6046;
1215.0000;0.6007;0.6046;
1215.3000;0.5983;0.6020;
1215.6000;0.6064;0.6121;
1215.9000;0.6024;0.6046;
1216.2000;0.6007;0.6046;
1216.5000;0.6007;0.6046;
1216.8000;0.6015;0.6071;
1217.1000;0.5999;0.6071;
1217.4000;0.5999;0.6121;
1217.7000;0.6024;0.6222;
1218.0000;0.5999;0.6222;
1218.3000;0.6007;0.6272;
1218.6000;0.6007;0.6373;
1218.9000;0.5958;0.6222;
1219.2000;0.5991;0.6297;
1219.5000;0.5999;0.6272;
1219.8000;0.6048;0.6449;
1220.1000;0.5991;0.6247;
1220.4000;0.5991;0.6323;
1220.7000;0.6015;0.6323;
1221.0000;0.5983;0.6297;
1221.3000;0.6007;0.6398;
1221.6000;0.5999;0.6474;
1221.9000;0.5999;0.6499;
1222.2000;0.6007;0.6524;
1222.5000;0.6007;0.6524;
1222.8000;0.6007;0.6549;
1223.1000;0.6015;0.6449;
1223.4000;0.6007;0.6373;
1223.7000;0.6007;0.6272;
1224.0000;0.6007;0.6247;
1224.3000;0.5999;0.6222;
1224.6000;0.5991;0.6121;
1224.9000;0.5991;0.6096;
1225.2000;0.5999;0.6121;
1225.5000;0.6015;0.6146;
1225.8000;0.5999;0.6146;
1226.1000;0.5991;0.6121;
1226.4000;0.5991;0.6096;
1226.7000;0.5999;0.6121;
1227.0000;0.6007;0.6121;
1227.3000;0.5983;0.6046;
1227.6000;0.5999;0.6071;
1227.9000;0.6007;0.6096;
1228.2000;0.6015;0.6197;
1228.5000;0.6015;0.6096;
1228.8000;0.6015;0.6096;
1229.1000;0.5999;0.6096;
1229.4000;0.5991;0.6222;
1229.7000;0.6040;0.6323;
1230.0000;0.5991;0.6197;
1230.3000;0.5975;0.6020;
1230.6000;0.5991;0.5920;
1230.9000;0.5983;0.5945;
1231.2000;0.5991;0.5945;
1231.5000;0.5975;0.5920;
1231.8000;0.5999;0.6020;
1232.1000;0.6007;0.6121;
1232.4000;0.5999;0.6247;
1232.7000;0.5991;0.6247;
1233.0000;0.5999;0.6247;
1233.3000;0.6048;0.6373;
1233.6000;0.6015;0.6297;
1233.9000;0.6024;0.6373;
1234.2000;0.5999;0.6247;
1234.5000;0.5991;0.6297;
1234.8000;0.5991;0.6247;
1235.1000;0.5999;0.6272;
1235.4000;0.5999;0.6222;
1235.7000;0.5999;0.6197;
1236.0000;0.5999;0.6146;
1236.3000;0.5999;0.6121;
1236.6000;0.6007;0.6121;
1236.9000;0.5991;0.6222;
1237.2000;0.5999;0.6272;
1237.5000;0.5967;0.6197;
1237.8000;0.6032;0.6172;
1238.1000;0.5999;0.6121;
1238.4000;0.6007;0.6121;
1238.7000;0.6072;0.6247;
1239.0000;0.5999;0.6071;
1239.3000;0.5999;0.6096;
1239.6000;0.5999;0.6146;
1239.9000;0.6007;0.6247;
1240.2000;0.5991;0.6172;
1240.5000;0.6007;0.6146;
1240.8000;0.5975;0.6096;
1241.1000;0.5983;0.6146;
1241.4000;0.6024;0.6323;
1241.7000;0.5983;0.6146;
1242.0000;0.5991;0.6121;
1242.3000;0.6064;0.6348;
1242.6000;0.5934;0.6020;
1242.9000;0.5999;0.6172;
1243.2000;0.6024;0.6172;
1243.5000;0.5991;0.6172;
1243.8000;0.5999;0.6071;
1244.1000;0.6007;0.6121;
1244.4000;0.5991;0.6096;
1244.7000;0.6007;0.6046;
1245.0000;0.5999;0.6146;
1245.3000;0.5975;0.6172;
1245.6000;0.6024;0.6297;
1245.9000;0.6007;0.6272;
1246.2000;0.5983;0.6172;
1246.5000;0.5999;0.6172;
1246.8000;0.5983;0.6046;
1247.1000;0.6040;0.6146;
1247.4000;0.5999;0.6146;
1247.7000;0.6048;0.6323;
1248.0000;0.5975;0.6146;
1248.3000;0.5999;0.6146;
1248.6000;0.5991;0.6046;
1248.9000;0.6007;0.6096;
1249.2000;0.6007;0.6096;
1249.5000;0.5991;0.5995;
1249.8000;0.5999;0.5970;
1250.1000;0.5999;0.6046;
1250.4000;0.5991;0.6071;
1250.7000;0.6024;0.6146;
1251.0000;0.6007;0.6197;
1251.3000;0.6015;0.6172;
1251.6000;0.5999;0.6197;
1251.9000;0.6007;0.6222;
1252.2000;0.5991;0.6247;
1252.5000;0.6015;0.6373;
1252.8000;0.5991;0.6348;
1253.1000;0.5991;0.6373;
1253.4000;0.5999;0.6272;
1253.7000;0.5999;0.6272;
1254.0000;0.6024;0.6297;
1254.3000;0.6040;0.6373;
1254.6000;0.5999;0.6272;
1254.9000;0.5999;0.6323;
1255.2000;0.5991;0.6398;
1255.5000;0.5991;0.6398;
1255.8000;0.5983;0.6323;
1256.1000;0.5991;0.6297;
1256.4000;0.6048;0.6373;
1256.7000;0.5991;0.6247;
1257.0000;0.5991;0.6272;
1257.3000;0.5991;0.6222;
1257.6000;0.5999;0.6222;
1257.9000;0.6007;0.6146;
1258.2000;0.5999;0.6121;
1258.5000;0.5991;0.6146;
1258.8000;0.5991;0.6096;
1259.1000;0.6007;0.6172;
1259.4000;0.6007;0.6247;
1259.7000;0.5991;0.6247;
1260.0000;0.6015;0.6297;
1260.3000;0.6007;0.6247;
1260.6000;0.5975;0.6096;
1260.9000;0.5999;0.6146;
1261.2000;0.6007;0.6046;
1261.5000;0.5999;0.5970;
1261.8000;0.6007;0.6071;
1262.1000;0.5999;0.6096;
1262.4000;0.6040;0.6172;
1262.7000;0.5958;0.5995;
1263.0000;0.5999;0.5945;
1263.3000;0.5999;0.5894;
1263.6000;0.5999;0.5894;
1263.9000;0.5983;0.5844;
1264.2000;0.5958;0.5869;
1264.5000;0.6015;0.5970;
1264.8000;0.6064;0.6146;
1265.1000;0.5999;0.5970;
1265.4000;0.6007;0.6046;
1265.7000;0.5983;0.5970;
1266.0000;0.5991;0.5945;
1266.3000;0.5991;0.5894;
1266.6000;0.5999;0.5995;
1266.9000;0.5991;0.5920;
1267.2000;0.6015;0.5920;
1267.5000;0.5991;0.5945;
1267.8000;0.5983;0.5995;
1268.1000;0.5983;0.5995;
1268.4000;0.5999;0.5970;
1268.7000;0.5958;0.5894;
1269.0000;0.5991;0.5945;
1269.3000;0.6007;0.5945;
1269.6000;0.5991;0.5920;
1269.9000;0.5991;0.5945;
1270.2000;0.6024;0.5995;
1270.5000;0.6007;0.5995;
1270.8000;0.5999;0.5945;
1271.1000;0.5934;0.5794;
1271.4000;0.5999;0.5995;
1271.7000;0.5999;0.6071;
1272.0000;0.5991;0.6046;
1272.3000;0.6007;0.6046;
1272.6000;0.5983;0.5970;
1272.9000;0.5983;0.5894;
1273.2000;0.5983;0.5894;
1273.5000;0.5999;0.5970;
1273.8000;0.5999;0.5945;
1274.1000;0.5975;0.5844;
1274.4000;0.5991;0.5945;
1274.7000;0.5991;0.5920;
1275.0000;0.5975;0.5995;
1275.3000;0.5991;0.5995;
1275.6000;0.5999;0.6046;
1275.9000;0.6024;0.6172;
1276.2000;0.5983;0.6020;
1276.5000;0.5975;0.5970;
1276.8000;0.6015;0.6046;
1277.1000;0.5999;0.5970;
1277.4000;0.5975;0.6020;
1277.7000;0.5983;0.6096;
1278.0000;0.5999;0.6197;
1278.3000;0.6040;0.6197;
1278.6000;0.5991;0.6046;
1278.9000;0.5991;0.6046;
1279.2000;0.5999;0.6020;
1279.5000;0.6007;0.5894;
1279.8000;0.5991;0.5869;
1280.1000;0.5999;0.5970;
1280.4000;0.5991;0.5920;
1280.7000;0.6015;0.6020;
1281.0000;0.5991;0.6020;
1281.3000;0.5991;0.6071;
1281.6000;0.6015;0.6096;
1281.9000;0.5983;0.5995;
1282.2000;0.5999;0.6020;
1282.5000;0.5975;0.6071;
1282.8000;0.5999;0.6121;
1283.1000;0.5910;0.5995;
1283.4000;0.6015;0.6197;
1283.7000;0.5983;0.6121;
1284.0000;0.5983;0.6096;
1284.3000;0.5991;0.6121;
1284.6000;0.5967;0.5945;
1284.9000;0.5983;0.5945;
1285.2000;0.5991;0.5920;
1285.5000;0.6015;0.6046;
1285.8000;0.5983;0.5920;
1286.1000;0.5983;0.5844;
1286.4000;0.5975;0.5920;
1286.7000;0.5975;0.5970;
1287.0000;0.5983;0.5920;
1287.3000;0.5991;0.5945;
1287.6000;0.5950;0.5894;
1287.9000;0.5991;0.6071;
1288.2000;0.5999;0.6172;
1288.5000;0.5942;0.6071;
1288.8000;0.5975;0.6146;
1289.1000;0.5975;0.6071;
1289.4000;0.5999;0.6071;
1289.7000;0.5967;0.6046;
1290.0000;0.5991;0.6121;
1290.3000;0.6040;0.6197;
1290.6000;0.5983;0.6020;
1290.9000;0.5983;0.5995;
1291.2000;0.5967;0.5945;
1291.5000;0.5958;0.5970;
1291.8000;0.5991;0.6046;
1292.1000;0.5983;0.6046;
1292.4000;0.5958;0.6046;
1292.7000;0.5983;0.6046;
1293.0000;0.5975;0.6046;
1293.3000;0.6024;0.6046;
1293.6000;0.5999;0.5995;
1293.9000;0.5983;0.6020;
1294.2000;0.5975;0.6096;
1294.5000;0.6015;0.6121;
1294.8000;0.6007;0.6071;
1295.1000;0.5991;0.6071;
1295.4000;0.5983;0.5995;
1295.7000;0.5991;0.5995;
1296.0000;0.5999;0.5945;
1296.3000;0.5967;0.5819;
1296.6000;0.5975;0.5743;
1296.9000;0.5983;0.5769;
1297.2000;0.6015;0.5945;
1297.5000;0.5983;0.5894;
1297.8000;0.5999;0.5920;
1298.1000;0.5975;0.5743;
1298.4000;0.5999;0.5794;
1298.7000;0.5991;0.5743;
1299.0000;0.5950;0.5668;
1299.3000;0.6007;0.5794;
1299.6000;0.5999;0.5769;
1299.9000;0.5967;0.5769;
1300.2000;0.6015;0.5869;
1300.5000;0.5983;0.5794;
1300.8000;0.5967;0.5844;
1301.1000;0.5991;0.5894;
1301.4000;0.6007;0.5894;
1301.7000;0.5983;0.5894;
1302.0000;0.5975;0.5945;
1302.3000;0.5991;0.5945;
1302.6000;0.5983;0.5894;
1302.9000;0.5958;0.5844;
1303.2000;0.5967;0.5844;
1303.5000;0.5934;0.5743;
1303.8000;0.5983;0.5844;
1304.1000;0.5991;0.5920;
1304.4000;0.5975;0.5819;
1304.7000;0.5983;0.5743;
1305.0000;0.5967;0.5718;
1305.3000;0.5958;0.5718;
1305.6000;0.5991;0.5894;
1305.9000;0.5999;0.5920;
1306.2000;0.6007;0.5920;
1306.5000;0.5999;0.5920;
1306.8000;0.6007;0.5819;
1307.1000;0.5999;0.5894;
1307.4000;0.6007;0.5920;
1307.7000;0.5999;0.5894;
1308.0000;0.5983;0.5920;
1308.3000;0.6015;0.5995;
1308.6000;0.5975;0.5894;
1308.9000;0.5991;0.6020;
1309.2000;0.5983;0.6020;
1309.5000;0.5991;0.5970;
1309.8000;0.6015;0.5995;
1310.1000;0.5983;0.5920;
1310.4000;0.5991;0.5869;
1310.7000;0.5975;0.5794;
1311.0000;0.5975;0.5819;
1311.3000;0.5983;0.5769;
1311.6000;0.5967;0.5718;
1311.9000;0.6024;0.5869;
1312.2000;0.5991;0.5894;
1312.5000;0.5975;0.5819;
1312.8000;0.5975;0.5844;
1313.1000;0.5975;0.5894;
1313.4000;0.5983;0.5945;
1313.7000;0.5991;0.6020;
1314.0000;0.5975;0.5995;
1314.3000;0.5967;0.5995;
1314.6000;0.5999;0.6020;
1314.9000;0.6007;0.5995;
1315.2000;0.5991;0.6020;
1315.5000;0.5983;0.6046;
1315.8000;0.5991;0.6020;
1316.1000;0.5991;0.5970;
1316.4000;0.5999;0.6046;
1316.7000;0.5975;0.6071;
1317.0000;0.5983;0.5995;
1317.3000;0.5950;0.5970;
1317.6000;0.5983;0.6096;
1317.9000;0.5991;0.6046;
1318.2000;0.5991;0.6046;
1318.5000;0.5991;0.5995;
1318.8000;0.6007;0.6020;
1319.1000;0.5991;0.5995;
1319.4000;0.5975;0.5970;
1319.7000;0.5991;0.5995;
1320.0000;0.5967;0.5970;
1320.3000;0.6007;0.6096;
1320.6000;0.5999;0.6096;
1320.9000;0.6007;0.6146;
1321.2000;0.5991;0.6121;
1321.5000;0.6032;0.6247;
1321.8000;0.5967;0.6096;
1322.1000;0.5967;0.6197;
1322.4000;0.5983;0.6247;
1322.7000;0.5991;0.6272;
1323.0000;0.5991;0.6222;
1323.3000;0.5902;0.6020;
1323.6000;0.5950;0.6096;
1323.9000;0.5958;0.6046;
1324.2000;0.5991;0.6172;
1324.5000;0.5983;0.6121;
1324.8000;0.5975;0.6121;
1325.1000;0.5991;0.6046;
1325.4000;0.5999;0.6121;
1325.7000;0.5991;0.6146;
1326.0000;0.5991;0.6172;
1326.3000;0.5999;0.6172;
1326.6000;0.5975;0.6071;
1326.9000;0.5967;0.6046;
1327.2000;0.5991;0.6046;
1327.5000;0.6007;0.6172;
1327.8000;0.5975;0.6046;
1328.1000;0.5975;0.6121;
1328.4000;0.5991;0.6146;
1328.7000;0.5975;0.6071;
1329.0000;0.5999;0.6096;
1329.3000;0.5983;0.6121;
1329.6000;0.5950;0.6071;
1329.9000;0.5975;0.6121;
1330.2000;0.5991;0.6096;
1330.5000;0.6007;0.6222;
1330.8000;0.5999;0.6297;
1331.1000;0.5999;0.6323;
1331.4000;0.5991;0.6398;
1331.7000;0.5983;0.6348;
1332.0000;0.5991;0.6323;
1332.3000;0.5975;0.6272;
1332.6000;0.5975;0.6197;
1332.9000;0.5975;0.6247;
1333.2000;0.5983;0.6247;
1333.5000;0.5967;0.6222;
1333.8000;0.5983;0.6172;
1334.1000;0.5991;0.6197;
1334.4000;0.5991;0.6146;
1334.7000;0.5967;0.6096;
1335.0000;0.5991;0.6146;
1335.3000;0.5991;0.6172;
1335.6000;0.5983;0.6222;
1335.9000;0.5967;0.6197;
1336.2000;0.5958;0.6272;
1336.5000;0.5999;0.6348;
1336.8000;0.5991;0.6297;
1337.1000;0.5975;0.6222;
1337.4000;0.5967;0.6222;
1337.7000;0.5991;0.6197;
1338.0000;0.6007;0.6121;
1338.3000;0.5975;0.6046;
1338.6000;0.5999;0.6071;
1338.9000;0.5991;0.6096;
1339.2000;0.5983;0.6146;
1339.5000;0.6032;0.6222;
1339.8000;0.6007;0.6172;
1340.1000;0.5999;0.6247;
1340.4000;0.6015;0.6247;
1340.7000;0.6024;0.6272;
1341.0000;0.5991;0.6146;
1341.3000;0.5983;0.6172;
1341.6000;0.6007;0.6373;
1341.9000;0.5967;0.6348;
1342.2000;0.5983;0.6297;
1342.5000;0.5910;0.6146;
1342.8000;0.5975;0.6272;
1343.1000;0.6089;0.6575;
1343.4000;0.5991;0.6247;
1343.7000;0.5991;0.6096;
1344.0000;0.6007;0.6297;
1344.3000;0.5950;0.6197;
1344.6000;0.5999;0.6373;
1344.9000;0.5991;0.6348;
1345.2000;0.5950;0.6197;
1345.5000;0.5991;0.6423;
1345.8000;0.5991;0.6423;
1346.1000;0.6105;0.6701;
1346.4000;0.5958;0.6373;
1346.7000;0.5991;0.6373;
1347.0000;0.5991;0.6272;
1347.3000;0.5926;0.6172;
1347.6000;0.5975;0.6297;
1347.9000;0.5983;0.6247;
1348.2000;0.5975;0.6297;
1348.5000;0.5975;0.6272;
1348.8000;0.5983;0.6348;
1349.1000;0.5975;0.6297;
1349.4000;0.5983;0.6297;
1349.7000;0.5975;0.6247;
1350.0000;0.5975;0.6172;
1350.3000;0.5975;0.6172;
1350.6000;0.5983;0.6247;
1350.9000;0.5991;0.6222;
1351.2000;0.5983;0.6247;
1351.5000;0.5983;0.6247;
1351.8000;0.5983;0.6222;
1352.1000;0.5983;0.6247;
1352.4000;0.5999;0.6272;
1352.7000;0.5975;0.6172;
1353.0000;0.5983;0.6197;
1353.3000;0.5926;0.6121;
1353.6000;0.5983;0.6297;
1353.9000;0.5975;0.6272;
1354.2000;0.5983;0.6247;
1354.5000;0.5967;0.6146;
1354.8000;0.5991;0.6121;
1355.1000;0.5983;0.6197;
1355.4000;0.5983;0.6197;
1355.7000;0.5983;0.6121;
1356.0000;0.5975;0.6197;
1356.3000;0.5967;0.6197;
1356.6000;0.5991;0.6197;
1356.9000;0.5975;0.6172;
1357.2000;0.5999;0.6272;
1357.5000;0.5983;0.6247;
1357.8000;0.5967;0.6197;
1358.1000;0.5983;0.6146;
1358.4000;0.5983;0.6146;
1358.7000;0.5983;0.6222;
1359.0000;0.5983;0.6172;
1359.3000;0.5975;0.6247;
1359.6000;0.5910;0.6046;
1359.9000;0.5967;0.6272;
1360.2000;0.5975;0.6247;
1360.5000;0.5983;0.6146;
1360.8000;0.5975;0.6046;
1361.1000;0.5975;0.6046;
1361.4000;0.5983;0.6020;
1361.7000;0.5967;0.6071;
1362.0000;0.5991;0.6121;
1362.3000;0.5999;0.6197;
1362.6000;0.5950;0.6121;
1362.9000;0.5967;0.6046;
1363.2000;0.5991;0.6096;
1363.5000;0.6007;0.6096;
1363.8000;0.5975;0.5970;
1364.1000;0.5983;0.5819;
1364.4000;0.5999;0.5819;
1364.7000;0.5934;0.5668;
1365.0000;0.5967;0.5743;
1365.3000;0.5958;0.5693;
1365.6000;0.5958;0.5819;
1365.9000;0.5983;0.5920;
1366.2000;0.5975;0.5894;
1366.5000;0.5991;0.5844;
1366.8000;0.5975;0.5844;
1367.1000;0.5967;0.5794;
1367.4000;0.5999;0.5920;
1367.7000;0.5991;0.5945;
1368.0000;0.5967;0.5995;
1368.3000;0.5975;0.5970;
1368.6000;0.5983;0.5970;
1368.9000;0.5958;0.5945;
1369.2000;0.5983;0.6046;
1369.5000;0.5999;0.6172;
1369.8000;0.5999;0.6222;
1370.1000;0.5991;0.6297;
1370.4000;0.5999;0.6323;
1370.7000;0.5991;0.6247;
1371.0000;0.5975;0.6323;
1371.3000;0.5975;0.6297;
1371.6000;0.5991;0.6297;
1371.9000;0.5967;0.6096;
1372.2000;0.6007;0.6197;
1372.5000;0.5975;0.6121;
1372.8000;0.5975;0.6146;
1373.1000;0.5967;0.6222;
1373.4000;0.5983;0.6323;
1373.7000;0.5975;0.6323;
1374.0000;0.5975;0.6348;
1374.3000;0.5975;0.6398;
1374.6000;0.5983;0.6297;
1374.9000;0.5967;0.6323;
1375.2000;0.5983;0.6348;
1375.5000;0.5975;0.6323;
1375.8000;0.5983;0.6373;
1376.1000;0.5983;0.6373;
1376.4000;0.5983;0.6348;
1376.7000;0.5975;0.6297;
1377.0000;0.5999;0.6348;
1377.3000;0.5983;0.6373;
1377.6000;0.5991;0.6373;
1377.9000;0.5983;0.6323;
1378.2000;0.5975;0.6272;
1378.5000;0.6032;0.6449;
1378.8000;0.5999;0.6323;
1379.1000;0.6007;0.6348;
1379.4000;0.5934;0.6222;
1379.7000;0.5999;0.6499;
1380.0000;0.6007;0.6449;
1380.3000;0.6007;0.6423;
1380.6000;0.5910;0.6146;
1380.9000;0.5983;0.6348;
1381.2000;0.5983;0.6323;
1381.5000;0.6015;0.6373;
1381.8000;0.5967;0.6272;
1382.1000;0.5983;0.6398;
1382.4000;0.5983;0.6373;
1382.7000;0.6032;0.6499;
1383.0000;0.5958;0.6373;
1383.3000;0.5958;0.6398;
1383.6000;0.5983;0.6398;
1383.9000;0.5983;0.6449;
1384.2000;0.5958;0.6499;
1384.5000;0.5975;0.6474;
1384.8000;0.5975;0.6449;
1385.1000;0.5983;0.6373;
1385.4000;0.6024;0.6549;
1385.7000;0.5975;0.6398;
1386.0000;0.5991;0.6423;
1386.3000;0.5975;0.6398;
1386.6000;0.5967;0.6449;
1386.9000;0.5967;0.6423;
1387.2000;0.5975;0.6398;
1387.5000;0.6007;0.6398;
1387.8000;0.5983;0.6272;
1388.1000;0.5983;0.6373;
1388.4000;0.6007;0.6499;
1388.7000;0.5975;0.6499;
1389.0000;0.5958;0.6323;
1389.3000;0.5991;0.6474;
1389.6000;0.5983;0.6398;
1389.9000;0.5967;0.6398;
1390.2000;0.5950;0.6348;
1390.5000;0.5967;0.6423;
1390.8000;0.5967;0.6474;
1391.1000;0.5950;0.6398;
1391.4000;0.5975;0.6449;
1391.7000;0.5975;0.6499;
1392.0000;0.5967;0.6423;
1392.3000;0.5975;0.6474;
1392.6000;0.5975;0.6449;
1392.9000;0.5991;0.6524;
1393.2000;0.5967;0.6474;
1393.5000;0.5967;0.6474;
1393.8000;0.5967;0.6398;
1394.1000;0.5967;0.6449;
1394.4000;0.5967;0.6398;
1394.7000;0.5942;0.6272;
1395.0000;0.5950;0.6373;
1395.3000;0.5999;0.6398;
1395.6000;0.5975;0.6398;
1395.9000;0.5958;0.6373;
1396.2000;0.5934;0.6323;
1396.5000;0.5918;0.6247;
1396.8000;0.5975;0.6373;
1397.1000;0.5983;0.6272;
1397.4000;0.5975;0.6121;
1397.7000;0.5967;0.6146;
1398.0000;0.5975;0.6172;
1398.3000;0.5983;0.6197;
1398.6000;0.5975;0.6146;
1398.9000;0.5991;0.6096;
1399.2000;0.5975;0.6071;
1399.5000;0.5983;0.6146;
1399.8000;0.5983;0.6146;
