time/ms;Fluo/V;P700 deltaI/I x10³;
-199.8000;1.0126;0.6902;
-199.5000;1.0142;0.6902;
-199.2000;1.0134;0.6852;
-198.9000;1.0159;0.6877;
-198.6000;1.0142;0.6877;
-198.3000;1.0134;0.6852;
-198.0000;1.0159;0.6927;
-197.7000;1.0159;0.6902;
-197.4000;1.0167;0.6902;
-197.1000;1.0159;0.6952;
-196.8000;1.0159;0.6978;
-196.5000;1.0142;0.6927;
-196.2000;1.0142;0.6927;
-195.9000;1.0142;0.6952;
-195.6000;1.0167;0.7003;
-195.3000;1.0159;0.7003;
-195.0000;1.0142;0.6952;
-194.7000;1.0110;0.6877;
-194.4000;1.0142;0.7028;
-194.1000;1.0102;0.6877;
-193.8000;1.0191;0.7053;
-193.5000;1.0167;0.7078;
-193.2000;1.0151;0.6952;
-192.9000;1.0159;0.6978;
-192.6000;1.0208;0.7204;
-192.3000;1.0159;0.7003;
-192.0000;1.0142;0.6978;
-191.7000;1.0126;0.6927;
-191.4000;1.0151;0.6978;
-191.1000;1.0175;0.7179;
-190.8000;1.0126;0.6978;
-190.5000;1.0142;0.7078;
-190.2000;1.0134;0.7104;
-189.9000;1.0134;0.7028;
-189.6000;1.0134;0.7028;
-189.3000;1.0126;0.6978;
-189.0000;1.0142;0.7003;
-188.7000;1.0142;0.6952;
-188.4000;1.0126;0.6902;
-188.1000;1.0142;0.6927;
-187.8000;1.0118;0.6826;
-187.5000;1.0151;0.6927;
-187.2000;1.0151;0.6826;
-186.9000;1.0159;0.6826;
-186.6000;1.0142;0.6801;
-186.3000;1.0151;0.6726;
-186.0000;1.0134;0.6650;
-185.7000;1.0151;0.6650;
-185.4000;1.0142;0.6625;
-185.1000;1.0142;0.6701;
-184.8000;1.0126;0.6650;
-184.5000;1.0142;0.6701;
-184.2000;1.0142;0.6650;
-183.9000;1.0142;0.6549;
-183.6000;1.0142;0.6600;
-183.3000;1.0175;0.6726;
-183.0000;1.0126;0.6751;
-182.7000;1.0142;0.6877;
-182.4000;1.0151;0.6877;
-182.1000;1.0142;0.6801;
-181.8000;1.0134;0.6726;
-181.5000;1.0134;0.6726;
-181.2000;1.0167;0.6801;
-180.9000;1.0142;0.6776;
-180.6000;1.0134;0.6776;
-180.3000;1.0151;0.6776;
-180.0000;1.0142;0.6751;
-179.7000;1.0159;0.6801;
-179.4000;1.0175;0.6776;
-179.1000;1.0151;0.6701;
-178.8000;1.0167;0.6776;
-178.5000;1.0151;0.6726;
-178.2000;1.0142;0.6726;
-177.9000;1.0134;0.6675;
-177.6000;1.0151;0.6726;
-177.3000;1.0142;0.6726;
-177.0000;1.0134;0.6650;
-176.7000;1.0191;0.6751;
-176.4000;1.0134;0.6650;
-176.1000;1.0159;0.6625;
-175.8000;1.0159;0.6600;
-175.5000;1.0110;0.6474;
-175.2000;1.0151;0.6549;
-174.9000;1.0102;0.6524;
-174.6000;1.0142;0.6776;
-174.3000;1.0151;0.6877;
-174.0000;1.0134;0.6826;
-173.7000;1.0151;0.6726;
-173.4000;1.0183;0.6852;
-173.1000;1.0167;0.6801;
-172.8000;1.0151;0.6776;
-172.5000;1.0159;0.6751;
-172.2000;1.0159;0.6801;
-171.9000;1.0142;0.6751;
-171.6000;1.0142;0.6801;
-171.3000;1.0151;0.6726;
-171.0000;1.0159;0.6701;
-170.7000;1.0159;0.6650;
-170.4000;1.0126;0.6499;
-170.1000;1.0142;0.6549;
-169.8000;1.0151;0.6575;
-169.5000;1.0151;0.6600;
-169.2000;1.0126;0.6524;
-168.9000;1.0142;0.6675;
-168.6000;1.0134;0.6675;
-168.3000;1.0134;0.6726;
-168.0000;1.0142;0.6726;
-167.7000;1.0159;0.6751;
-167.4000;1.0208;0.6927;
-167.1000;1.0151;0.6751;
-166.8000;1.0142;0.6701;
-166.5000;1.0151;0.6801;
-166.2000;1.0151;0.6751;
-165.9000;1.0134;0.6701;
-165.6000;1.0142;0.6675;
-165.3000;1.0142;0.6575;
-165.0000;1.0118;0.6575;
-164.7000;1.0167;0.6625;
-164.4000;1.0142;0.6524;
-164.1000;1.0142;0.6549;
-163.8000;1.0142;0.6625;
-163.5000;1.0151;0.6751;
-163.2000;1.0151;0.6776;
-162.9000;1.0126;0.6751;
-162.6000;1.0134;0.6776;
-162.3000;1.0159;0.6726;
-162.0000;1.0151;0.6650;
-161.7000;1.0134;0.6675;
-161.4000;1.0167;0.6801;
-161.1000;1.0159;0.6776;
-160.8000;1.0151;0.6726;
-160.5000;1.0159;0.6801;
-160.2000;1.0151;0.6826;
-159.9000;1.0151;0.6902;
-159.6000;1.0167;0.7003;
-159.3000;1.0240;0.7179;
-159.0000;1.0167;0.6978;
-158.7000;1.0142;0.6927;
-158.4000;1.0142;0.6927;
-158.1000;1.0151;0.6952;
-157.8000;1.0167;0.6902;
-157.5000;1.0151;0.6852;
-157.2000;1.0151;0.6751;
-156.9000;1.0167;0.6877;
-156.6000;1.0151;0.6826;
-156.3000;1.0142;0.6877;
-156.0000;1.0151;0.6927;
-155.7000;1.0142;0.6877;
-155.4000;1.0134;0.6852;
-155.1000;1.0126;0.6751;
-154.8000;1.0151;0.6776;
-154.5000;1.0151;0.6801;
-154.2000;1.0175;0.6826;
-153.9000;1.0151;0.6801;
-153.6000;1.0142;0.6877;
-153.3000;1.0126;0.6751;
-153.0000;1.0159;0.6751;
-152.7000;1.0102;0.6625;
-152.4000;1.0175;0.6826;
-152.1000;1.0151;0.6902;
-151.8000;1.0142;0.6927;
-151.5000;1.0151;0.6852;
-151.2000;1.0142;0.6826;
-150.9000;1.0151;0.6826;
-150.6000;1.0151;0.6776;
-150.3000;1.0142;0.6701;
-150.0000;1.0159;0.6751;
-149.7000;1.0134;0.6726;
-149.4000;1.0159;0.6751;
-149.1000;1.0142;0.6751;
-148.8000;1.0134;0.6776;
-148.5000;1.0151;0.6801;
-148.2000;1.0110;0.6701;
-147.9000;1.0134;0.6751;
-147.6000;1.0142;0.6801;
-147.3000;1.0118;0.6776;
-147.0000;1.0134;0.6826;
-146.7000;1.0151;0.6877;
-146.4000;1.0142;0.6751;
-146.1000;1.0134;0.6701;
-145.8000;1.0142;0.6650;
-145.5000;1.0151;0.6650;
-145.2000;1.0126;0.6675;
-144.9000;1.0134;0.6701;
-144.6000;1.0142;0.6751;
-144.3000;1.0142;0.6701;
-144.0000;1.0142;0.6650;
-143.7000;1.0142;0.6650;
-143.4000;1.0134;0.6726;
-143.1000;1.0134;0.6726;
-142.8000;1.0142;0.6776;
-142.5000;1.0134;0.6776;
-142.2000;1.0142;0.6826;
-141.9000;1.0134;0.6776;
-141.6000;1.0159;0.6726;
-141.3000;1.0142;0.6701;
-141.0000;1.0159;0.6701;
-140.7000;1.0167;0.6726;
-140.4000;1.0175;0.6751;
-140.1000;1.0151;0.6751;
-139.8000;1.0151;0.6776;
-139.5000;1.0142;0.6751;
-139.2000;1.0151;0.6751;
-138.9000;1.0151;0.6726;
-138.6000;1.0142;0.6701;
-138.3000;1.0126;0.6675;
-138.0000;1.0142;0.6675;
-137.7000;1.0159;0.6675;
-137.4000;1.0159;0.6701;
-137.1000;1.0134;0.6675;
-136.8000;1.0159;0.6701;
-136.5000;1.0159;0.6675;
-136.2000;1.0151;0.6675;
-135.9000;1.0167;0.6701;
-135.6000;1.0142;0.6675;
-135.3000;1.0159;0.6650;
-135.0000;1.0142;0.6600;
-134.7000;1.0151;0.6675;
-134.4000;1.0159;0.6625;
-134.1000;1.0159;0.6575;
-133.8000;1.0159;0.6499;
-133.5000;1.0102;0.6323;
-133.2000;1.0142;0.6423;
-132.9000;1.0151;0.6423;
-132.6000;1.0159;0.6524;
-132.3000;1.0159;0.6524;
-132.0000;1.0126;0.6474;
-131.7000;1.0159;0.6499;
-131.4000;1.0159;0.6499;
-131.1000;1.0159;0.6499;
-130.8000;1.0142;0.6398;
-130.5000;1.0167;0.6499;
-130.2000;1.0151;0.6575;
-129.9000;1.0159;0.6625;
-129.6000;1.0159;0.6575;
-129.3000;1.0159;0.6625;
-129.0000;1.0151;0.6575;
-128.7000;1.0151;0.6549;
-128.4000;1.0126;0.6499;
-128.1000;1.0126;0.6549;
-127.8000;1.0151;0.6675;
-127.5000;1.0159;0.6675;
-127.2000;1.0126;0.6650;
-126.9000;1.0232;0.6852;
-126.6000;1.0151;0.6650;
-126.3000;1.0151;0.6675;
-126.0000;1.0142;0.6675;
-125.7000;1.0118;0.6549;
-125.4000;1.0134;0.6524;
-125.1000;1.0159;0.6524;
-124.8000;1.0142;0.6524;
-124.5000;1.0151;0.6600;
-124.2000;1.0256;0.6826;
-123.9000;1.0134;0.6474;
-123.6000;1.0151;0.6499;
-123.3000;1.0142;0.6474;
-123.0000;1.0142;0.6423;
-122.7000;1.0142;0.6449;
-122.4000;1.0159;0.6449;
-122.1000;1.0151;0.6423;
-121.8000;1.0142;0.6449;
-121.5000;1.0151;0.6549;
-121.2000;1.0159;0.6549;
-120.9000;1.0142;0.6499;
-120.6000;1.0151;0.6524;
-120.3000;1.0151;0.6549;
-120.0000;1.0159;0.6600;
-119.7000;1.0159;0.6524;
-119.4000;1.0159;0.6575;
-119.1000;1.0151;0.6524;
-118.8000;1.0159;0.6524;
-118.5000;1.0151;0.6474;
-118.2000;1.0126;0.6549;
-117.9000;1.0151;0.6650;
-117.6000;1.0159;0.6701;
-117.3000;1.0175;0.6751;
-117.0000;1.0167;0.6726;
-116.7000;1.0151;0.6776;
-116.4000;1.0159;0.6852;
-116.1000;1.0142;0.6801;
-115.8000;1.0159;0.6852;
-115.5000;1.0175;0.6852;
-115.2000;1.0151;0.6751;
-114.9000;1.0159;0.6826;
-114.6000;1.0159;0.6801;
-114.3000;1.0142;0.6726;
-114.0000;1.0151;0.6650;
-113.7000;1.0142;0.6600;
-113.4000;1.0134;0.6524;
-113.1000;1.0126;0.6474;
-112.8000;1.0142;0.6524;
-112.5000;1.0183;0.6726;
-112.2000;1.0159;0.6675;
-111.9000;1.0142;0.6675;
-111.6000;1.0151;0.6650;
-111.3000;1.0159;0.6650;
-111.0000;1.0159;0.6675;
-110.7000;1.0159;0.6675;
-110.4000;1.0142;0.6726;
-110.1000;1.0134;0.6726;
-109.8000;1.0142;0.6701;
-109.5000;1.0142;0.6650;
-109.2000;1.0142;0.6625;
-108.9000;1.0142;0.6625;
-108.6000;1.0142;0.6650;
-108.3000;1.0151;0.6549;
-108.0000;1.0159;0.6549;
-107.7000;1.0208;0.6650;
-107.4000;1.0142;0.6524;
-107.1000;1.0159;0.6625;
-106.8000;1.0142;0.6549;
-106.5000;1.0167;0.6625;
-106.2000;1.0208;0.6675;
-105.9000;1.0175;0.6575;
-105.6000;1.0151;0.6524;
-105.3000;1.0159;0.6575;
-105.0000;1.0159;0.6575;
-104.7000;1.0151;0.6524;
-104.4000;1.0159;0.6549;
-104.1000;1.0134;0.6499;
-103.8000;1.0216;0.6701;
-103.5000;1.0159;0.6474;
-103.2000;1.0134;0.6449;
-102.9000;1.0151;0.6600;
-102.6000;1.0159;0.6701;
-102.3000;1.0134;0.6600;
-102.0000;1.0118;0.6600;
-101.7000;1.0061;0.6499;
-101.4000;1.0118;0.6600;
-101.1000;1.0151;0.6675;
-100.8000;1.0167;0.6776;
-100.5000;1.0142;0.6776;
-100.2000;1.0199;0.6927;
-99.9000;1.0151;0.6776;
-99.6000;1.0094;0.6751;
-99.3000;1.0151;0.6927;
-99.0000;1.0167;0.7053;
-98.7000;1.0167;0.7053;
-98.4000;1.0142;0.6776;
-98.1000;1.0151;0.6826;
-97.8000;1.0151;0.6751;
-97.5000;1.0142;0.6675;
-97.2000;1.0142;0.6701;
-96.9000;1.0151;0.6751;
-96.6000;1.0118;0.6701;
-96.3000;1.0134;0.6826;
-96.0000;1.0151;0.6852;
-95.7000;1.0142;0.6826;
-95.4000;1.0159;0.6927;
-95.1000;1.0159;0.6877;
-94.8000;1.0134;0.6801;
-94.5000;1.0191;0.6902;
-94.2000;1.0126;0.6776;
-93.9000;1.0126;0.6801;
-93.6000;1.0151;0.6877;
-93.3000;1.0159;0.6978;
-93.0000;1.0183;0.7003;
-92.7000;1.0142;0.6952;
-92.4000;1.0151;0.6927;
-92.1000;1.0151;0.6902;
-91.8000;1.0142;0.6852;
-91.5000;1.0151;0.6902;
-91.2000;1.0126;0.6852;
-90.9000;1.0159;0.6826;
-90.6000;1.0142;0.6776;
-90.3000;1.0151;0.6826;
-90.0000;1.0151;0.6776;
-89.7000;1.0142;0.6701;
-89.4000;1.0110;0.6701;
-89.1000;1.0134;0.6877;
-88.8000;1.0134;0.6826;
-88.5000;1.0142;0.6826;
-88.2000;1.0142;0.6776;
-87.9000;1.0151;0.6726;
-87.6000;1.0142;0.6801;
-87.3000;1.0118;0.6726;
-87.0000;1.0142;0.6852;
-86.7000;1.0126;0.6852;
-86.4000;1.0167;0.6902;
-86.1000;1.0094;0.6675;
-85.8000;1.0142;0.6877;
-85.5000;1.0167;0.7003;
-85.2000;1.0151;0.7053;
-84.9000;1.0175;0.7129;
-84.6000;1.0159;0.7003;
-84.3000;1.0142;0.6927;
-84.0000;1.0142;0.6952;
-83.7000;1.0142;0.6952;
-83.4000;1.0134;0.6852;
-83.1000;1.0151;0.6852;
-82.8000;1.0151;0.6751;
-82.5000;1.0142;0.6675;
-82.2000;1.0118;0.6600;
-81.9000;1.0142;0.6625;
-81.6000;1.0142;0.6549;
-81.3000;1.0151;0.6600;
-81.0000;1.0142;0.6675;
-80.7000;1.0151;0.6776;
-80.4000;1.0159;0.6726;
-80.1000;1.0142;0.6701;
-79.8000;1.0102;0.6575;
-79.5000;1.0134;0.6675;
-79.2000;1.0110;0.6625;
-78.9000;1.0118;0.6625;
-78.6000;1.0134;0.6650;
-78.3000;1.0126;0.6675;
-78.0000;1.0142;0.6675;
-77.7000;1.0224;0.6927;
-77.4000;1.0134;0.6675;
-77.1000;1.0183;0.6650;
-76.8000;1.0151;0.6600;
-76.5000;1.0142;0.6600;
-76.2000;1.0134;0.6575;
-75.9000;1.0175;0.6650;
-75.6000;1.0126;0.6650;
-75.3000;1.0159;0.6726;
-75.0000;1.0134;0.6701;
-74.7000;1.0208;0.6927;
-74.4000;1.0216;0.6902;
-74.1000;1.0159;0.6776;
-73.8000;1.0151;0.6726;
-73.5000;1.0142;0.6701;
-73.2000;1.0126;0.6600;
-72.9000;1.0151;0.6650;
-72.6000;1.0142;0.6650;
-72.3000;1.0118;0.6625;
-72.0000;1.0126;0.6675;
-71.7000;1.0142;0.6701;
-71.4000;1.0134;0.6675;
-71.1000;1.0142;0.6675;
-70.8000;1.0151;0.6600;
-70.5000;1.0151;0.6650;
-70.2000;1.0191;0.6776;
-69.9000;1.0159;0.6701;
-69.6000;1.0159;0.6751;
-69.3000;1.0142;0.6751;
-69.0000;1.0151;0.6751;
-68.7000;1.0142;0.6726;
-68.4000;1.0142;0.6675;
-68.1000;1.0134;0.6726;
-67.8000;1.0167;0.6751;
-67.5000;1.0159;0.6675;
-67.2000;1.0142;0.6675;
-66.9000;1.0151;0.6726;
-66.6000;1.0142;0.6675;
-66.3000;1.0134;0.6499;
-66.0000;1.0134;0.6524;
-65.7000;1.0142;0.6600;
-65.4000;1.0151;0.6625;
-65.1000;1.0151;0.6650;
-64.8000;1.0159;0.6701;
-64.5000;1.0134;0.6675;
-64.2000;1.0159;0.6726;
-63.9000;1.0126;0.6575;
-63.6000;1.0151;0.6549;
-63.3000;1.0159;0.6474;
-63.0000;1.0142;0.6474;
-62.7000;1.0151;0.6675;
-62.4000;1.0167;0.6549;
-62.1000;1.0151;0.6625;
-61.8000;1.0142;0.6650;
-61.5000;1.0167;0.6751;
-61.2000;1.0134;0.6801;
-60.9000;1.0159;0.6852;
-60.6000;1.0110;0.6801;
-60.3000;1.0151;0.6978;
-60.0000;1.0142;0.6952;
-59.7000;1.0142;0.7053;
-59.4000;1.0142;0.7003;
-59.1000;1.0142;0.6927;
-58.8000;1.0151;0.6978;
-58.5000;1.0159;0.7003;
-58.2000;1.0159;0.6927;
-57.9000;1.0134;0.6852;
-57.6000;1.0142;0.6902;
-57.3000;1.0159;0.6978;
-57.0000;1.0175;0.7078;
-56.7000;1.0151;0.6978;
-56.4000;1.0191;0.6902;
-56.1000;1.0134;0.6927;
-55.8000;1.0151;0.6952;
-55.5000;1.0134;0.6902;
-55.2000;1.0134;0.6852;
-54.9000;1.0208;0.7053;
-54.6000;1.0142;0.6952;
-54.3000;1.0134;0.6927;
-54.0000;1.0151;0.6952;
-53.7000;1.0151;0.7028;
-53.4000;1.0142;0.6927;
-53.1000;1.0134;0.6826;
-52.8000;1.0134;0.6751;
-52.5000;1.0134;0.6751;
-52.2000;1.0151;0.6801;
-51.9000;1.0142;0.6776;
-51.6000;1.0142;0.6751;
-51.3000;1.0151;0.6776;
-51.0000;1.0159;0.6852;
-50.7000;1.0159;0.6826;
-50.4000;1.0199;0.6826;
-50.1000;1.0151;0.6701;
-49.8000;1.0151;0.6726;
-49.5000;1.0151;0.6726;
-49.2000;1.0159;0.6776;
-48.9000;1.0159;0.6801;
-48.6000;1.0151;0.6776;
-48.3000;1.0159;0.6801;
-48.0000;1.0142;0.6726;
-47.7000;1.0118;0.6701;
-47.4000;1.0142;0.6776;
-47.1000;1.0151;0.6801;
-46.8000;1.0151;0.6801;
-46.5000;1.0142;0.6751;
-46.2000;1.0151;0.6776;
-45.9000;1.0199;0.6852;
-45.6000;1.0151;0.6751;
-45.3000;1.0175;0.6801;
-45.0000;1.0151;0.6776;
-44.7000;1.0151;0.6726;
-44.4000;1.0142;0.6726;
-44.1000;1.0134;0.6726;
-43.8000;1.0151;0.6776;
-43.5000;1.0126;0.6675;
-43.2000;1.0151;0.6776;
-42.9000;1.0151;0.6826;
-42.6000;1.0142;0.6776;
-42.3000;1.0134;0.6801;
-42.0000;1.0142;0.6675;
-41.7000;1.0142;0.6600;
-41.4000;1.0151;0.6701;
-41.1000;1.0142;0.6701;
-40.8000;1.0151;0.6776;
-40.5000;1.0126;0.6751;
-40.2000;1.0142;0.6675;
-39.9000;1.0134;0.6600;
-39.6000;1.0159;0.6650;
-39.3000;1.0175;0.6675;
-39.0000;1.0142;0.6701;
-38.7000;1.0159;0.6776;
-38.4000;1.0175;0.6801;
-38.1000;1.0159;0.6701;
-37.8000;1.0159;0.6675;
-37.5000;1.0118;0.6600;
-37.2000;1.0134;0.6650;
-36.9000;1.0142;0.6650;
-36.6000;1.0126;0.6650;
-36.3000;1.0134;0.6701;
-36.0000;1.0142;0.6751;
-35.7000;1.0102;0.6650;
-35.4000;1.0142;0.6726;
-35.1000;1.0151;0.6726;
-34.8000;1.0191;0.6776;
-34.5000;1.0151;0.6726;
-34.2000;1.0159;0.6701;
-33.9000;1.0142;0.6675;
-33.6000;1.0151;0.6801;
-33.3000;1.0159;0.6877;
-33.0000;1.0151;0.6852;
-32.7000;1.0126;0.6776;
-32.4000;1.0151;0.6801;
-32.1000;1.0159;0.6852;
-31.8000;1.0151;0.6877;
-31.5000;1.0142;0.6776;
-31.2000;1.0142;0.6751;
-30.9000;1.0142;0.6751;
-30.6000;1.0151;0.6701;
-30.3000;1.0134;0.6600;
-30.0000;1.0167;0.6701;
-29.7000;1.0134;0.6524;
-29.4000;1.0151;0.6549;
-29.1000;1.0151;0.6549;
-28.8000;1.0142;0.6499;
-28.5000;1.0216;0.6751;
-28.2000;1.0159;0.6625;
-27.9000;1.0142;0.6600;
-27.6000;1.0183;0.6600;
-27.3000;1.0142;0.6524;
-27.0000;1.0142;0.6549;
-26.7000;1.0151;0.6524;
-26.4000;1.0126;0.6499;
-26.1000;1.0134;0.6499;
-25.8000;1.0151;0.6625;
-25.5000;1.0159;0.6701;
-25.2000;1.0151;0.6600;
-24.9000;1.0159;0.6625;
-24.6000;1.0142;0.6625;
-24.3000;1.0142;0.6625;
-24.0000;1.0167;0.6625;
-23.7000;1.0151;0.6575;
-23.4000;1.0134;0.6524;
-23.1000;1.0151;0.6575;
-22.8000;1.0142;0.6675;
-22.5000;1.0110;0.6650;
-22.2000;1.0126;0.6675;
-21.9000;1.0167;0.6726;
-21.6000;1.0159;0.6701;
-21.3000;1.0126;0.6600;
-21.0000;1.0126;0.6625;
-20.7000;1.0134;0.6600;
-20.4000;1.0159;0.6600;
-20.1000;1.0142;0.6474;
-19.8000;1.0151;0.6524;
-19.5000;1.0134;0.6499;
-19.2000;1.0142;0.6575;
-18.9000;1.0159;0.6575;
-18.6000;1.0151;0.6549;
-18.3000;1.0151;0.6499;
-18.0000;1.0151;0.6499;
-17.7000;1.0094;0.6398;
-17.4000;1.0142;0.6600;
-17.1000;1.0142;0.6650;
-16.8000;1.0134;0.6600;
-16.5000;1.0134;0.6575;
-16.2000;1.0142;0.6600;
-15.9000;1.0126;0.6625;
-15.6000;1.0151;0.6675;
-15.3000;1.0134;0.6650;
-15.0000;1.0126;0.6600;
-14.7000;1.0142;0.6600;
-14.4000;1.0134;0.6650;
-14.1000;1.0151;0.6701;
-13.8000;1.0142;0.6726;
-13.5000;1.0142;0.6726;
-13.2000;1.0199;0.6877;
-12.9000;1.0208;0.6826;
-12.6000;1.0151;0.6776;
-12.3000;1.0151;0.6852;
-12.0000;1.0134;0.6826;
-11.7000;1.0134;0.6826;
-11.4000;1.0142;0.6801;
-11.1000;1.0134;0.6826;
-10.8000;1.0151;0.6776;
-10.5000;1.0134;0.6751;
-10.2000;1.0159;0.6776;
-9.9000;1.0151;0.6726;
-9.6000;1.0126;0.6701;
-9.3000;1.0142;0.6826;
-9.0000;1.0159;0.6852;
-8.7000;1.0151;0.6852;
-8.4000;1.0151;0.6902;
-8.1000;1.0151;0.6877;
-7.8000;1.0134;0.6826;
-7.5000;1.0159;0.6776;
-7.2000;1.0142;0.6801;
-6.9000;1.0134;0.6701;
-6.6000;1.0126;0.6575;
-6.3000;1.0118;0.6499;
-6.0000;1.0110;0.6600;
-5.7000;1.0126;0.6650;
-5.4000;1.0142;0.6801;
-5.1000;1.0151;0.6927;
-4.8000;1.0134;0.6826;
-4.5000;1.0118;0.6801;
-4.2000;1.0134;0.6776;
-3.9000;1.0151;0.6877;
-3.6000;1.0159;0.6877;
-3.3000;1.0134;0.6826;
-3.0000;1.0151;0.6852;
-2.7000;1.0134;0.6852;
-2.4000;1.0134;0.6852;
-2.1000;1.0126;0.6877;
-1.8000;1.0134;0.6877;
-1.5000;1.0159;0.6902;
-1.2000;1.0142;0.6877;
-0.9000;1.0151;0.6801;
-0.6000;1.0126;0.6650;
-0.3000;1.0134;0.6650;
0.0000;1.0134;0.6650;
0.3000;1.0159;0.6575;
0.6000;1.0248;0.7053;
0.9000;1.0297;0.7255;
1.2000;1.0354;0.7582;
1.5000;1.0346;0.7784;
1.8000;1.0419;0.8111;
2.1000;1.0452;0.8262;
2.4000;1.0492;0.8338;
2.7000;1.0476;0.8338;
3.0000;1.0492;0.8439;
3.3000;1.0501;0.8539;
3.6000;1.0501;0.8590;
3.9000;1.0533;0.8691;
4.2000;1.0541;0.8716;
4.5000;1.0533;0.8691;
4.8000;1.0541;0.8816;
5.1000;1.0558;0.8867;
5.4000;1.0574;0.8968;
5.7000;1.0590;0.8968;
6.0000;1.0615;0.8942;
6.3000;1.0590;0.8968;
6.6000;1.0623;0.9018;
6.9000;1.0606;0.8968;
7.2000;1.0615;0.8968;
7.5000;1.0631;0.9068;
7.8000;1.0631;0.9068;
8.1000;1.0623;0.9043;
8.4000;1.0623;0.8942;
8.7000;1.0574;0.8791;
9.0000;1.0639;0.8968;
9.3000;1.0672;0.9043;
9.6000;1.0623;0.8917;
9.9000;1.0655;0.9043;
10.2000;1.0647;0.8917;
10.5000;1.0655;0.8917;
10.8000;1.0680;0.9119;
11.1000;1.0680;0.9169;
11.4000;1.0647;0.9043;
11.7000;1.0655;0.8968;
12.0000;1.0639;0.8993;
12.3000;1.0647;0.9018;
12.6000;1.0663;0.9094;
12.9000;1.0655;0.9119;
13.2000;1.0655;0.9068;
13.5000;1.0663;0.9043;
13.8000;1.0663;0.9043;
14.1000;1.0639;0.8942;
14.4000;1.0753;0.9144;
14.7000;1.0688;0.9043;
15.0000;1.0680;0.8968;
15.3000;1.0696;0.8942;
15.6000;1.0696;0.8917;
15.9000;1.0680;0.8993;
16.2000;1.0696;0.8968;
16.5000;1.0720;0.8993;
16.8000;1.0696;0.8968;
17.1000;1.0688;0.8942;
17.4000;1.0712;0.9018;
17.7000;1.0704;0.9043;
18.0000;1.0696;0.8968;
18.3000;1.0688;0.8968;
18.6000;1.0704;0.8993;
18.9000;1.0704;0.9043;
19.2000;1.0704;0.9068;
19.5000;1.0712;0.9043;
19.8000;1.0696;0.8968;
20.1000;1.0712;0.8968;
20.4000;1.0720;0.9094;
20.7000;1.0696;0.8968;
21.0000;1.0696;0.8816;
21.3000;1.0696;0.8842;
21.6000;1.0712;0.8892;
21.9000;1.0696;0.8968;
22.2000;1.0688;0.8968;
22.5000;1.0688;0.9018;
22.8000;1.0704;0.9094;
23.1000;1.0704;0.9068;
23.4000;1.0712;0.9094;
23.7000;1.0720;0.9094;
24.0000;1.0786;0.9220;
24.3000;1.0704;0.9018;
24.6000;1.0761;0.9068;
24.9000;1.0696;0.8917;
25.2000;1.0696;0.8968;
25.5000;1.0712;0.8942;
25.8000;1.0704;0.8867;
26.1000;1.0704;0.8892;
26.4000;1.0720;0.8942;
26.7000;1.0720;0.9018;
27.0000;1.0729;0.8968;
27.3000;1.0696;0.8867;
27.6000;1.0729;0.8942;
27.9000;1.0712;0.8968;
28.2000;1.0720;0.8968;
28.5000;1.0704;0.8993;
28.8000;1.0704;0.8993;
29.1000;1.0712;0.9043;
29.4000;1.0737;0.9094;
29.7000;1.0696;0.8993;
30.0000;1.0720;0.9094;
30.3000;1.0720;0.9094;
30.6000;1.0745;0.9194;
30.9000;1.0712;0.9119;
31.2000;1.0704;0.9043;
31.5000;1.0720;0.9094;
31.8000;1.0737;0.9068;
32.1000;1.0729;0.9043;
32.4000;1.0737;0.8968;
32.7000;1.0761;0.8993;
33.0000;1.0737;0.8942;
33.3000;1.0712;0.8993;
33.6000;1.0729;0.8993;
33.9000;1.0712;0.9018;
34.2000;1.0729;0.9018;
34.5000;1.0712;0.9018;
34.8000;1.0704;0.8917;
35.1000;1.0720;0.9068;
35.4000;1.0672;0.8917;
35.7000;1.0729;0.9119;
36.0000;1.0729;0.9043;
36.3000;1.0720;0.9018;
36.6000;1.0720;0.8942;
36.9000;1.0729;0.8917;
37.2000;1.0704;0.8867;
37.5000;1.0729;0.8993;
37.8000;1.0720;0.8892;
38.1000;1.0672;0.8691;
38.4000;1.0729;0.8867;
38.7000;1.0729;0.8867;
39.0000;1.0712;0.8867;
39.3000;1.0769;0.9018;
39.6000;1.0720;0.8917;
39.9000;1.0720;0.8917;
40.2000;1.0704;0.8892;
40.5000;1.0704;0.8842;
40.8000;1.0720;0.8993;
41.1000;1.0720;0.9018;
41.4000;1.0769;0.9043;
41.7000;1.0704;0.8993;
42.0000;1.0720;0.8993;
42.3000;1.0712;0.8917;
42.6000;1.0712;0.8892;
42.9000;1.0704;0.8867;
43.2000;1.0737;0.8816;
43.5000;1.0720;0.8791;
43.8000;1.0729;0.8816;
44.1000;1.0720;0.8842;
44.4000;1.0712;0.8816;
44.7000;1.0720;0.8917;
45.0000;1.0720;0.8968;
45.3000;1.0729;0.8917;
45.6000;1.0729;0.8942;
45.9000;1.0720;0.8968;
46.2000;1.0704;0.8942;
46.5000;1.0720;0.8892;
46.8000;1.0720;0.8892;
47.1000;1.0729;0.8993;
47.4000;1.0672;0.8842;
47.7000;1.0712;0.8917;
48.0000;1.0712;0.8867;
48.3000;1.0729;0.8917;
48.6000;1.0720;0.8917;
48.9000;1.0712;0.8917;
49.2000;1.0720;0.8917;
49.5000;1.0704;0.8842;
49.8000;1.0712;0.8816;
50.1000;1.0712;0.8842;
50.4000;1.0696;0.8867;
50.7000;1.0688;0.8842;
51.0000;1.0696;0.8791;
51.3000;1.0704;0.8791;
51.6000;1.0696;0.8766;
51.9000;1.0704;0.8816;
52.2000;1.0729;0.8942;
52.5000;1.0704;0.8942;
52.8000;1.0680;0.8867;
53.1000;1.0688;0.9018;
53.4000;1.0704;0.8993;
53.7000;1.0696;0.8917;
54.0000;1.0729;0.8993;
54.3000;1.0704;0.8917;
54.6000;1.0712;0.8993;
54.9000;1.0712;0.8942;
55.2000;1.0696;0.8842;
55.5000;1.0672;0.8766;
55.8000;1.0720;0.8766;
56.1000;1.0720;0.8791;
56.4000;1.0712;0.8816;
56.7000;1.0647;0.8665;
57.0000;1.0712;0.8842;
57.3000;1.0720;0.8816;
57.6000;1.0720;0.8942;
57.9000;1.0696;0.8842;
58.2000;1.0720;0.8791;
58.5000;1.0737;0.8842;
58.8000;1.0712;0.8816;
59.1000;1.0720;0.8791;
59.4000;1.0672;0.8665;
59.7000;1.0720;0.8942;
60.0000;1.0737;0.8917;
60.3000;1.0712;0.8842;
60.6000;1.0720;0.8917;
60.9000;1.0704;0.8842;
61.2000;1.0720;0.8816;
61.5000;1.0688;0.8716;
61.8000;1.0688;0.8766;
62.1000;1.0712;0.8816;
62.4000;1.0712;0.8766;
62.7000;1.0712;0.8867;
63.0000;1.0712;0.8816;
63.3000;1.0696;0.8741;
63.6000;1.0712;0.8791;
63.9000;1.0777;0.8968;
64.2000;1.0720;0.8892;
64.5000;1.0753;0.8993;
64.8000;1.0737;0.8892;
65.1000;1.0712;0.8816;
65.4000;1.0720;0.8816;
65.7000;1.0704;0.8741;
66.0000;1.0704;0.8691;
66.3000;1.0696;0.8640;
66.6000;1.0704;0.8615;
66.9000;1.0720;0.8615;
67.2000;1.0712;0.8691;
67.5000;1.0729;0.8741;
67.8000;1.0729;0.8716;
68.1000;1.0712;0.8766;
68.4000;1.0720;0.8816;
68.7000;1.0680;0.8791;
69.0000;1.0720;0.8867;
69.3000;1.0712;0.8917;
69.6000;1.0704;0.8867;
69.9000;1.0712;0.8917;
70.2000;1.0729;0.8968;
70.5000;1.0704;0.8867;
70.8000;1.0712;0.8917;
71.1000;1.0712;0.8842;
71.4000;1.0737;0.8968;
71.7000;1.0704;0.8842;
72.0000;1.0712;0.8791;
72.3000;1.0704;0.8766;
72.6000;1.0680;0.8716;
72.9000;1.0704;0.8867;
73.2000;1.0647;0.8716;
73.5000;1.0712;0.8917;
73.8000;1.0753;0.9043;
74.1000;1.0712;0.8942;
74.4000;1.0729;0.8968;
74.7000;1.0696;0.8842;
75.0000;1.0704;0.8867;
75.3000;1.0704;0.8867;
75.6000;1.0696;0.8842;
75.9000;1.0688;0.8791;
76.2000;1.0688;0.8816;
76.5000;1.0696;0.8917;
76.8000;1.0623;0.8766;
77.1000;1.0704;0.8892;
77.4000;1.0704;0.8917;
77.7000;1.0704;0.8942;
78.0000;1.0688;0.8867;
78.3000;1.0696;0.8892;
78.6000;1.0688;0.8791;
78.9000;1.0696;0.8791;
79.2000;1.0712;0.8842;
79.5000;1.0729;0.8842;
79.8000;1.0704;0.8791;
80.1000;1.0696;0.8892;
80.4000;1.0663;0.8867;
80.7000;1.0696;0.8993;
81.0000;1.0696;0.9018;
81.3000;1.0680;0.9018;
81.6000;1.0704;0.9043;
81.9000;1.0680;0.9043;
82.2000;1.0688;0.9018;
82.5000;1.0704;0.9119;
82.8000;1.0696;0.9119;
83.1000;1.0696;0.9144;
83.4000;1.0704;0.9169;
83.7000;1.0704;0.9144;
84.0000;1.0712;0.9119;
84.3000;1.0688;0.9094;
84.6000;1.0696;0.9068;
84.9000;1.0680;0.9068;
85.2000;1.0696;0.9144;
85.5000;1.0704;0.9094;
85.8000;1.0696;0.8993;
86.1000;1.0688;0.8993;
86.4000;1.0663;0.8993;
86.7000;1.0696;0.9119;
87.0000;1.0720;0.9144;
87.3000;1.0696;0.9043;
87.6000;1.0720;0.9068;
87.9000;1.0704;0.8993;
88.2000;1.0729;0.8942;
88.5000;1.0712;0.8942;
88.8000;1.0696;0.8942;
89.1000;1.0704;0.9068;
89.4000;1.0712;0.9018;
89.7000;1.0704;0.9043;
90.0000;1.0720;0.9068;
90.3000;1.0704;0.9043;
90.6000;1.0712;0.8993;
90.9000;1.0704;0.8917;
91.2000;1.0688;0.8842;
91.5000;1.0696;0.8842;
91.8000;1.0696;0.8842;
92.1000;1.0720;0.8968;
92.4000;1.0704;0.9043;
92.7000;1.0753;0.9169;
93.0000;1.0720;0.9068;
93.3000;1.0704;0.9043;
93.6000;1.0655;0.8968;
93.9000;1.0688;0.9119;
94.2000;1.0696;0.9144;
94.5000;1.0704;0.9119;
94.8000;1.0704;0.9094;
95.1000;1.0720;0.9094;
95.4000;1.0688;0.9043;
95.7000;1.0696;0.9018;
96.0000;1.0672;0.8917;
96.3000;1.0696;0.8968;
96.6000;1.0688;0.9043;
96.9000;1.0655;0.8917;
97.2000;1.0672;0.8993;
97.5000;1.0696;0.9068;
97.8000;1.0696;0.9018;
98.1000;1.0696;0.9094;
98.4000;1.0663;0.8917;
98.7000;1.0704;0.8993;
99.0000;1.0696;0.9068;
99.3000;1.0712;0.9094;
99.6000;1.0712;0.9068;
99.9000;1.0712;0.8968;
100.2000;1.0688;0.8968;
100.5000;1.0696;0.9068;
100.8000;1.0753;0.9270;
101.1000;1.0696;0.9220;
101.4000;1.0696;0.9144;
101.7000;1.0696;0.9144;
102.0000;1.0696;0.9144;
102.3000;1.0680;0.9119;
102.6000;1.0688;0.9169;
102.9000;1.0696;0.9144;
103.2000;1.0712;0.9119;
103.5000;1.0704;0.9094;
103.8000;1.0704;0.9068;
104.1000;1.0696;0.9119;
104.4000;1.0647;0.9094;
104.7000;1.0704;0.9345;
105.0000;1.0696;0.9320;
105.3000;1.0729;0.9320;
105.6000;1.0712;0.9245;
105.9000;1.0704;0.9295;
106.2000;1.0696;0.9320;
106.5000;1.0688;0.9295;
106.8000;1.0688;0.9245;
107.1000;1.0696;0.9119;
107.4000;1.0688;0.9144;
107.7000;1.0688;0.9245;
108.0000;1.0696;0.9220;
108.3000;1.0631;0.9119;
108.6000;1.0753;0.9446;
108.9000;1.0696;0.9295;
109.2000;1.0696;0.9270;
109.5000;1.0696;0.9320;
109.8000;1.0688;0.9245;
110.1000;1.0688;0.9245;
110.4000;1.0688;0.9245;
110.7000;1.0672;0.9169;
111.0000;1.0688;0.9169;
111.3000;1.0680;0.9119;
111.6000;1.0688;0.9018;
111.9000;1.0680;0.9018;
112.2000;1.0696;0.9018;
112.5000;1.0737;0.9094;
112.8000;1.0696;0.8942;
113.1000;1.0688;0.8942;
113.4000;1.0704;0.9018;
113.7000;1.0712;0.9144;
114.0000;1.0704;0.9119;
114.3000;1.0696;0.9068;
114.6000;1.0712;0.9068;
114.9000;1.0696;0.9043;
115.2000;1.0696;0.9068;
115.5000;1.0696;0.9043;
115.8000;1.0688;0.9068;
116.1000;1.0712;0.9194;
116.4000;1.0688;0.9144;
116.7000;1.0688;0.9169;
117.0000;1.0672;0.9119;
117.3000;1.0688;0.9194;
117.6000;1.0704;0.9144;
117.9000;1.0688;0.9169;
118.2000;1.0696;0.9169;
118.5000;1.0688;0.9194;
118.8000;1.0688;0.9144;
119.1000;1.0712;0.9245;
119.4000;1.0688;0.9245;
119.7000;1.0696;0.9295;
120.0000;1.0696;0.9295;
120.3000;1.0696;0.9245;
120.6000;1.0688;0.9094;
120.9000;1.0696;0.9119;
121.2000;1.0704;0.9119;
121.5000;1.0663;0.9119;
121.8000;1.0680;0.9194;
122.1000;1.0688;0.9169;
122.4000;1.0688;0.9119;
122.7000;1.0696;0.9094;
123.0000;1.0688;0.9144;
123.3000;1.0696;0.9144;
123.6000;1.0696;0.9144;
123.9000;1.0696;0.9068;
124.2000;1.0688;0.9068;
124.5000;1.0696;0.9068;
124.8000;1.0696;0.9119;
125.1000;1.0704;0.9220;
125.4000;1.0688;0.9094;
125.7000;1.0688;0.9094;
126.0000;1.0688;0.9043;
126.3000;1.0704;0.9068;
126.6000;1.0688;0.9043;
126.9000;1.0688;0.9043;
127.2000;1.0696;0.9068;
127.5000;1.0712;0.9094;
127.8000;1.0680;0.9068;
128.1000;1.0737;0.9169;
128.4000;1.0688;0.9043;
128.7000;1.0712;0.9169;
129.0000;1.0680;0.9270;
129.3000;1.0696;0.9270;
129.6000;1.0696;0.9144;
129.9000;1.0704;0.9119;
130.2000;1.0655;0.8993;
130.5000;1.0688;0.9068;
130.8000;1.0688;0.9119;
131.1000;1.0688;0.9119;
131.4000;1.0672;0.9169;
131.7000;1.0631;0.9068;
132.0000;1.0663;0.9119;
132.3000;1.0696;0.9144;
132.6000;1.0672;0.9169;
132.9000;1.0672;0.9119;
133.2000;1.0672;0.9144;
133.5000;1.0663;0.9144;
133.8000;1.0680;0.9194;
134.1000;1.0680;0.9220;
134.4000;1.0688;0.9270;
134.7000;1.0680;0.9320;
135.0000;1.0680;0.9270;
135.3000;1.0704;0.9245;
135.6000;1.0753;0.9320;
135.9000;1.0688;0.9144;
136.2000;1.0688;0.9144;
136.5000;1.0688;0.9194;
136.8000;1.0688;0.9119;
137.1000;1.0688;0.9144;
137.4000;1.0680;0.9169;
137.7000;1.0688;0.9194;
138.0000;1.0688;0.9270;
138.3000;1.0680;0.9245;
138.6000;1.0680;0.9245;
138.9000;1.0680;0.9220;
139.2000;1.0672;0.9119;
139.5000;1.0672;0.9119;
139.8000;1.0672;0.9144;
140.1000;1.0672;0.9194;
140.4000;1.0696;0.9270;
140.7000;1.0680;0.9169;
141.0000;1.0639;0.9094;
141.3000;1.0680;0.9169;
141.6000;1.0688;0.9144;
141.9000;1.0631;0.8968;
142.2000;1.0704;0.9169;
142.5000;1.0663;0.9068;
142.8000;1.0696;0.9220;
143.1000;1.0696;0.9194;
143.4000;1.0672;0.9169;
143.7000;1.0672;0.9270;
144.0000;1.0672;0.9245;
144.3000;1.0672;0.9270;
144.6000;1.0663;0.9270;
144.9000;1.0663;0.9270;
145.2000;1.0615;0.9169;
145.5000;1.0663;0.9270;
145.8000;1.0639;0.9144;
146.1000;1.0672;0.9194;
146.4000;1.0712;0.9371;
146.7000;1.0663;0.9194;
147.0000;1.0672;0.9169;
147.3000;1.0663;0.9144;
147.6000;1.0663;0.9144;
147.9000;1.0680;0.9144;
148.2000;1.0647;0.9043;
148.5000;1.0696;0.9245;
148.8000;1.0680;0.9194;
149.1000;1.0680;0.9094;
149.4000;1.0712;0.9144;
149.7000;1.0663;0.9068;
150.0000;1.0688;0.9094;
150.3000;1.0672;0.9018;
150.6000;1.0680;0.9068;
150.9000;1.0696;0.9068;
151.2000;1.0672;0.9144;
151.5000;1.0688;0.9119;
151.8000;1.0712;0.9169;
152.1000;1.0672;0.9144;
152.4000;1.0680;0.9119;
152.7000;1.0647;0.9094;
153.0000;1.0680;0.9144;
153.3000;1.0655;0.9094;
153.6000;1.0655;0.9068;
153.9000;1.0672;0.9144;
154.2000;1.0672;0.9119;
154.5000;1.0672;0.9068;
154.8000;1.0720;0.9245;
155.1000;1.0672;0.9094;
155.4000;1.0672;0.9144;
155.7000;1.0688;0.9169;
156.0000;1.0680;0.9144;
156.3000;1.0680;0.9068;
156.6000;1.0582;0.8741;
156.9000;1.0680;0.8917;
157.2000;1.0680;0.8968;
157.5000;1.0672;0.8917;
157.8000;1.0672;0.8968;
158.1000;1.0672;0.9018;
158.4000;1.0655;0.9094;
158.7000;1.0672;0.9144;
159.0000;1.0688;0.9068;
159.3000;1.0663;0.9018;
159.6000;1.0688;0.9018;
159.9000;1.0680;0.8968;
160.2000;1.0680;0.9018;
160.5000;1.0688;0.9018;
160.8000;1.0680;0.9018;
161.1000;1.0680;0.9094;
161.4000;1.0688;0.9094;
161.7000;1.0680;0.9043;
162.0000;1.0672;0.8968;
162.3000;1.0672;0.8942;
162.6000;1.0680;0.8993;
162.9000;1.0663;0.8968;
163.2000;1.0672;0.8968;
163.5000;1.0663;0.8942;
163.8000;1.0655;0.8942;
164.1000;1.0623;0.8842;
164.4000;1.0680;0.8917;
164.7000;1.0680;0.8917;
165.0000;1.0672;0.8993;
165.3000;1.0663;0.8917;
165.6000;1.0663;0.8968;
165.9000;1.0663;0.9068;
166.2000;1.0663;0.9119;
166.5000;1.0663;0.9245;
166.8000;1.0647;0.9119;
167.1000;1.0680;0.9094;
167.4000;1.0680;0.9119;
167.7000;1.0623;0.8993;
168.0000;1.0663;0.9220;
168.3000;1.0672;0.9295;
168.6000;1.0696;0.9295;
168.9000;1.0663;0.9245;
169.2000;1.0663;0.9270;
169.5000;1.0680;0.9295;
169.8000;1.0639;0.9220;
170.1000;1.0663;0.9220;
170.4000;1.0680;0.9245;
170.7000;1.0680;0.9068;
171.0000;1.0672;0.8993;
171.3000;1.0680;0.9018;
171.6000;1.0672;0.9068;
171.9000;1.0655;0.9144;
172.2000;1.0672;0.9194;
172.5000;1.0688;0.9320;
172.8000;1.0663;0.9245;
173.1000;1.0672;0.9320;
173.4000;1.0672;0.9220;
173.7000;1.0672;0.9119;
174.0000;1.0647;0.9119;
174.3000;1.0672;0.9119;
174.6000;1.0672;0.9169;
174.9000;1.0663;0.9270;
175.2000;1.0663;0.9245;
175.5000;1.0655;0.9220;
175.8000;1.0672;0.9220;
176.1000;1.0672;0.9245;
176.4000;1.0680;0.9270;
176.7000;1.0639;0.9270;
177.0000;1.0655;0.9295;
177.3000;1.0647;0.9270;
177.6000;1.0655;0.9220;
177.9000;1.0655;0.9220;
178.2000;1.0655;0.9194;
178.5000;1.0663;0.9119;
178.8000;1.0647;0.9119;
179.1000;1.0672;0.9144;
179.4000;1.0647;0.9119;
179.7000;1.0663;0.9094;
180.0000;1.0680;0.9119;
180.3000;1.0655;0.9119;
180.6000;1.0639;0.8993;
180.9000;1.0672;0.9043;
181.2000;1.0672;0.9068;
181.5000;1.0729;0.9270;
181.8000;1.0720;0.9245;
182.1000;1.0672;0.9144;
182.4000;1.0647;0.9119;
182.7000;1.0663;0.9169;
183.0000;1.0639;0.9245;
183.3000;1.0655;0.9169;
183.6000;1.0680;0.9119;
183.9000;1.0647;0.9094;
184.2000;1.0655;0.9220;
184.5000;1.0655;0.9144;
184.8000;1.0663;0.9144;
185.1000;1.0680;0.9245;
185.4000;1.0655;0.9220;
185.7000;1.0663;0.9144;
186.0000;1.0639;0.9144;
186.3000;1.0672;0.9245;
186.6000;1.0696;0.9320;
186.9000;1.0672;0.9119;
187.2000;1.0663;0.9194;
187.5000;1.0647;0.9169;
187.8000;1.0655;0.9194;
188.1000;1.0639;0.9245;
188.4000;1.0680;0.9320;
188.7000;1.0663;0.9270;
189.0000;1.0655;0.9169;
189.3000;1.0647;0.9194;
189.6000;1.0647;0.9194;
189.9000;1.0672;0.9245;
190.2000;1.0688;0.9295;
190.5000;1.0663;0.9194;
190.8000;1.0663;0.9169;
191.1000;1.0672;0.9220;
191.4000;1.0663;0.9194;
191.7000;1.0655;0.9245;
192.0000;1.0680;0.9396;
192.3000;1.0663;0.9270;
192.6000;1.0655;0.9194;
192.9000;1.0672;0.9119;
193.2000;1.0655;0.9018;
193.5000;1.0647;0.9043;
193.8000;1.0647;0.8917;
194.1000;1.0655;0.8816;
194.4000;1.0672;0.8917;
194.7000;1.0631;0.8791;
195.0000;1.0672;0.8917;
195.3000;1.0663;0.8942;
195.6000;1.0680;0.8942;
195.9000;1.0655;0.8867;
196.2000;1.0663;0.8791;
196.5000;1.0696;0.8892;
196.8000;1.0696;0.8968;
197.1000;1.0663;0.8942;
197.4000;1.0672;0.8917;
197.7000;1.0672;0.8993;
198.0000;1.0680;0.9094;
198.3000;1.0663;0.9194;
198.6000;1.0663;0.9194;
198.9000;1.0631;0.9068;
199.2000;1.0672;0.9094;
199.5000;1.0623;0.8968;
199.8000;1.0672;0.9094;
200.1000;1.0672;0.9094;
200.4000;1.0672;0.9119;
200.7000;1.0655;0.9119;
201.0000;1.0655;0.9094;
201.3000;1.0647;0.9094;
201.6000;1.0655;0.9094;
201.9000;1.0655;0.9144;
202.2000;1.0655;0.9094;
202.5000;1.0696;0.9144;
202.8000;1.0688;0.9119;
203.1000;1.0663;0.9144;
203.4000;1.0680;0.9194;
203.7000;1.0672;0.9220;
204.0000;1.0672;0.9295;
204.3000;1.0663;0.9245;
204.6000;1.0655;0.9270;
204.9000;1.0655;0.9270;
205.2000;1.0655;0.9320;
205.5000;1.0647;0.9371;
205.8000;1.0631;0.9270;
206.1000;1.0647;0.9270;
206.4000;1.0647;0.9320;
206.7000;1.0672;0.9345;
207.0000;1.0647;0.9245;
207.3000;1.0655;0.9295;
207.6000;1.0647;0.9220;
207.9000;1.0655;0.9270;
208.2000;1.0647;0.9245;
208.5000;1.0655;0.9194;
208.8000;1.0655;0.9144;
209.1000;1.0647;0.9144;
209.4000;1.0663;0.9220;
209.7000;1.0615;0.9144;
210.0000;1.0647;0.9119;
210.3000;1.0663;0.9144;
210.6000;1.0663;0.9144;
210.9000;1.0647;0.9119;
211.2000;1.0663;0.9220;
211.5000;1.0655;0.9144;
211.8000;1.0655;0.9169;
212.1000;1.0647;0.9169;
212.4000;1.0663;0.9169;
212.7000;1.0639;0.9169;
213.0000;1.0623;0.9119;
213.3000;1.0647;0.9094;
213.6000;1.0647;0.9043;
213.9000;1.0647;0.8993;
214.2000;1.0647;0.8917;
214.5000;1.0655;0.8942;
214.8000;1.0606;0.8842;
215.1000;1.0680;0.8993;
215.4000;1.0647;0.8993;
215.7000;1.0655;0.8968;
216.0000;1.0647;0.8917;
216.3000;1.0631;0.8892;
216.6000;1.0639;0.9043;
216.9000;1.0655;0.9068;
217.2000;1.0631;0.8968;
217.5000;1.0631;0.8993;
217.8000;1.0647;0.9018;
218.1000;1.0672;0.9043;
218.4000;1.0655;0.9043;
218.7000;1.0655;0.8993;
219.0000;1.0655;0.9043;
219.3000;1.0647;0.9144;
219.6000;1.0647;0.9144;
219.9000;1.0655;0.9144;
220.2000;1.0655;0.9018;
220.5000;1.0720;0.9220;
220.8000;1.0672;0.9169;
221.1000;1.0688;0.9245;
221.4000;1.0672;0.9144;
221.7000;1.0663;0.9169;
222.0000;1.0655;0.9245;
222.3000;1.0729;0.9396;
222.6000;1.0655;0.9220;
222.9000;1.0623;0.9194;
223.2000;1.0615;0.9169;
223.5000;1.0647;0.9194;
223.8000;1.0639;0.9169;
224.1000;1.0647;0.9270;
224.4000;1.0680;0.9396;
224.7000;1.0647;0.9295;
225.0000;1.0655;0.9371;
225.3000;1.0615;0.9245;
225.6000;1.0672;0.9270;
225.9000;1.0663;0.9194;
226.2000;1.0663;0.9144;
226.5000;1.0663;0.9094;
226.8000;1.0647;0.9144;
227.1000;1.0663;0.9194;
227.4000;1.0623;0.9018;
227.7000;1.0639;0.8993;
228.0000;1.0639;0.9043;
228.3000;1.0655;0.9144;
228.6000;1.0663;0.9119;
228.9000;1.0639;0.9119;
229.2000;1.0655;0.9144;
229.5000;1.0663;0.9094;
229.8000;1.0663;0.9043;
230.1000;1.0663;0.9119;
230.4000;1.0655;0.9068;
230.7000;1.0655;0.9144;
231.0000;1.0655;0.9194;
231.3000;1.0663;0.9245;
231.6000;1.0655;0.9194;
231.9000;1.0647;0.9169;
232.2000;1.0663;0.9194;
232.5000;1.0663;0.9119;
232.8000;1.0655;0.9119;
233.1000;1.0680;0.9144;
233.4000;1.0663;0.9094;
233.7000;1.0663;0.9094;
234.0000;1.0647;0.9119;
234.3000;1.0647;0.9068;
234.6000;1.0688;0.9220;
234.9000;1.0663;0.9169;
235.2000;1.0606;0.9144;
235.5000;1.0655;0.9320;
235.8000;1.0655;0.9421;
236.1000;1.0696;0.9446;
236.4000;1.0639;0.9194;
236.7000;1.0647;0.9144;
237.0000;1.0590;0.9144;
237.3000;1.0655;0.9220;
237.6000;1.0655;0.9144;
237.9000;1.0639;0.9144;
238.2000;1.0663;0.9220;
238.5000;1.0639;0.9169;
238.8000;1.0647;0.9119;
239.1000;1.0631;0.9043;
239.4000;1.0712;0.9295;
239.7000;1.0737;0.9245;
240.0000;1.0655;0.9094;
240.3000;1.0655;0.9094;
240.6000;1.0615;0.9068;
240.9000;1.0639;0.9169;
241.2000;1.0647;0.9194;
241.5000;1.0688;0.9245;
241.8000;1.0647;0.9270;
242.1000;1.0639;0.9169;
242.4000;1.0598;0.9068;
242.7000;1.0663;0.9220;
243.0000;1.0623;0.9194;
243.3000;1.0663;0.9245;
243.6000;1.0647;0.9169;
243.9000;1.0647;0.9144;
244.2000;1.0623;0.9068;
244.5000;1.0647;0.8968;
244.8000;1.0647;0.8993;
245.1000;1.0639;0.8942;
245.4000;1.0639;0.8942;
245.7000;1.0598;0.8968;
246.0000;1.0623;0.9119;
246.3000;1.0680;0.9220;
246.6000;1.0655;0.9194;
246.9000;1.0647;0.9144;
247.2000;1.0663;0.9043;
247.5000;1.0696;0.9194;
247.8000;1.0663;0.8917;
248.1000;1.0623;0.8791;
248.4000;1.0680;0.8942;
248.7000;1.0647;0.8892;
249.0000;1.0696;0.9018;
249.3000;1.0663;0.8892;
249.6000;1.0647;0.8892;
249.9000;1.0655;0.8942;
250.2000;1.0655;0.9068;
250.5000;1.0615;0.9094;
250.8000;1.0680;0.9194;
251.1000;1.0647;0.9144;
251.4000;1.0647;0.9220;
251.7000;1.0639;0.9144;
252.0000;1.0647;0.9043;
252.3000;1.0647;0.9068;
252.6000;1.0655;0.9144;
252.9000;1.0663;0.9119;
253.2000;1.0655;0.9119;
253.5000;1.0655;0.9169;
253.8000;1.0639;0.9119;
254.1000;1.0655;0.9245;
254.4000;1.0647;0.9194;
254.7000;1.0639;0.9245;
255.0000;1.0639;0.9295;
255.3000;1.0647;0.9345;
255.6000;1.0672;0.9345;
255.9000;1.0623;0.9220;
256.2000;1.0647;0.9345;
256.5000;1.0663;0.9320;
256.8000;1.0647;0.9295;
257.1000;1.0647;0.9144;
257.4000;1.0647;0.9043;
257.7000;1.0631;0.8968;
258.0000;1.0712;0.9220;
258.3000;1.0631;0.9119;
258.6000;1.0663;0.9169;
258.9000;1.0655;0.9169;
259.2000;1.0631;0.9119;
259.5000;1.0590;0.9043;
259.8000;1.0631;0.9144;
260.1000;1.0680;0.9270;
260.4000;1.0639;0.9094;
260.7000;1.0623;0.9068;
261.0000;1.0647;0.9094;
261.3000;1.0655;0.9144;
261.6000;1.0647;0.9068;
261.9000;1.0639;0.9119;
262.2000;1.0574;0.8993;
262.5000;1.0647;0.9144;
262.8000;1.0639;0.9119;
263.1000;1.0639;0.9119;
263.4000;1.0631;0.9043;
263.7000;1.0655;0.9043;
264.0000;1.0639;0.9068;
264.3000;1.0663;0.9119;
264.6000;1.0623;0.9094;
264.9000;1.0647;0.9169;
265.2000;1.0655;0.9119;
265.5000;1.0672;0.9144;
265.8000;1.0639;0.9144;
266.1000;1.0631;0.9094;
266.4000;1.0647;0.9119;
266.7000;1.0655;0.9144;
267.0000;1.0647;0.9144;
267.3000;1.0639;0.9119;
267.6000;1.0655;0.9144;
267.9000;1.0663;0.9169;
268.2000;1.0639;0.9144;
268.5000;1.0639;0.9169;
268.8000;1.0639;0.9119;
269.1000;1.0639;0.9245;
269.4000;1.0647;0.9295;
269.7000;1.0639;0.9270;
270.0000;1.0647;0.9295;
270.3000;1.0647;0.9295;
270.6000;1.0647;0.9220;
270.9000;1.0647;0.9144;
271.2000;1.0631;0.9220;
271.5000;1.0647;0.9220;
271.8000;1.0680;0.9245;
272.1000;1.0663;0.9169;
272.4000;1.0663;0.9094;
272.7000;1.0655;0.9119;
273.0000;1.0655;0.9119;
273.3000;1.0639;0.9169;
273.6000;1.0647;0.9169;
273.9000;1.0623;0.9169;
274.2000;1.0623;0.9194;
274.5000;1.0639;0.9169;
274.8000;1.0582;0.9018;
275.1000;1.0623;0.9068;
275.4000;1.0582;0.8968;
275.7000;1.0639;0.9144;
276.0000;1.0655;0.9144;
276.3000;1.0623;0.9094;
276.6000;1.0672;0.9144;
276.9000;1.0639;0.9094;
277.2000;1.0663;0.9119;
277.5000;1.0655;0.9068;
277.8000;1.0647;0.8993;
278.1000;1.0647;0.9094;
278.4000;1.0647;0.9043;
278.7000;1.0672;0.9068;
279.0000;1.0639;0.9043;
279.3000;1.0655;0.9094;
279.6000;1.0639;0.9094;
279.9000;1.0623;0.9094;
280.2000;1.0615;0.9094;
280.5000;1.0631;0.9169;
280.8000;1.0631;0.9270;
281.1000;1.0663;0.9371;
281.4000;1.0623;0.9270;
281.7000;1.0631;0.9320;
282.0000;1.0672;0.9396;
282.3000;1.0647;0.9345;
282.6000;1.0663;0.9320;
282.9000;1.0598;0.9169;
283.2000;1.0606;0.9169;
283.5000;1.0655;0.9320;
283.8000;1.0647;0.9270;
284.1000;1.0647;0.9220;
284.4000;1.0623;0.9220;
284.7000;1.0631;0.9220;
285.0000;1.0680;0.9345;
285.3000;1.0590;0.9194;
285.6000;1.0647;0.9396;
285.9000;1.0615;0.9245;
286.2000;1.0631;0.9270;
286.5000;1.0623;0.9295;
286.8000;1.0631;0.9245;
287.1000;1.0639;0.9194;
287.4000;1.0631;0.9220;
287.7000;1.0631;0.9144;
288.0000;1.0631;0.9169;
288.3000;1.0639;0.9194;
288.6000;1.0631;0.9169;
288.9000;1.0623;0.9220;
289.2000;1.0639;0.9245;
289.5000;1.0631;0.9245;
289.8000;1.0639;0.9270;
290.1000;1.0631;0.9144;
290.4000;1.0639;0.9043;
290.7000;1.0631;0.9094;
291.0000;1.0639;0.9068;
291.3000;1.0663;0.9068;
291.6000;1.0639;0.9068;
291.9000;1.0631;0.9094;
292.2000;1.0647;0.9169;
292.5000;1.0647;0.9043;
292.8000;1.0639;0.8968;
293.1000;1.0639;0.8917;
293.4000;1.0655;0.8892;
293.7000;1.0655;0.8942;
294.0000;1.0655;0.9018;
294.3000;1.0639;0.9043;
294.6000;1.0631;0.9043;
294.9000;1.0639;0.9068;
295.2000;1.0639;0.9043;
295.5000;1.0631;0.9068;
295.8000;1.0647;0.9068;
296.1000;1.0639;0.9043;
296.4000;1.0639;0.8993;
296.7000;1.0631;0.8993;
297.0000;1.0639;0.9068;
297.3000;1.0631;0.9169;
297.6000;1.0623;0.9144;
297.9000;1.0623;0.9220;
298.2000;1.0631;0.9169;
298.5000;1.0639;0.9245;
298.8000;1.0631;0.9320;
299.1000;1.0631;0.9421;
299.4000;1.0623;0.9396;
299.7000;1.0639;0.9471;
300.0000;1.0639;0.9446;
300.3000;1.0639;0.9345;
300.6000;1.0647;0.9371;
300.9000;1.0647;0.9345;
301.2000;1.0639;0.9320;
301.5000;1.0631;0.9345;
301.8000;1.0647;0.9396;
302.1000;1.0606;0.9245;
302.4000;1.0631;0.9371;
302.7000;1.0655;0.9345;
303.0000;1.0639;0.9320;
303.3000;1.0663;0.9320;
303.6000;1.0655;0.9245;
303.9000;1.0655;0.9295;
304.2000;1.0647;0.9295;
304.5000;1.0590;0.9094;
304.8000;1.0647;0.9169;
305.1000;1.0655;0.9194;
305.4000;1.0647;0.9144;
305.7000;1.0655;0.9194;
306.0000;1.0639;0.9194;
306.3000;1.0647;0.9245;
306.6000;1.0639;0.9220;
306.9000;1.0680;0.9371;
307.2000;1.0631;0.9245;
307.5000;1.0672;0.9245;
307.8000;1.0574;0.9068;
308.1000;1.0680;0.9371;
308.4000;1.0655;0.9245;
308.7000;1.0615;0.9144;
309.0000;1.0590;0.9068;
309.3000;1.0623;0.9068;
309.6000;1.0631;0.9119;
309.9000;1.0623;0.9194;
310.2000;1.0623;0.9220;
310.5000;1.0606;0.9144;
310.8000;1.0631;0.9094;
311.1000;1.0631;0.9094;
311.4000;1.0639;0.9169;
311.7000;1.0647;0.9169;
312.0000;1.0615;0.9194;
312.3000;1.0590;0.9144;
312.6000;1.0639;0.9194;
312.9000;1.0639;0.9194;
313.2000;1.0631;0.9144;
313.5000;1.0631;0.9144;
313.8000;1.0655;0.9119;
314.1000;1.0631;0.9144;
314.4000;1.0639;0.9169;
314.7000;1.0688;0.9270;
315.0000;1.0663;0.9194;
315.3000;1.0615;0.9043;
315.6000;1.0623;0.9043;
315.9000;1.0631;0.9094;
316.2000;1.0647;0.9144;
316.5000;1.0647;0.9144;
316.8000;1.0639;0.9169;
317.1000;1.0647;0.9144;
317.4000;1.0647;0.9194;
317.7000;1.0639;0.9270;
318.0000;1.0639;0.9270;
318.3000;1.0647;0.9371;
318.6000;1.0712;0.9497;
318.9000;1.0655;0.9320;
319.2000;1.0647;0.9270;
319.5000;1.0623;0.9194;
319.8000;1.0639;0.9245;
320.1000;1.0639;0.9295;
320.4000;1.0615;0.9245;
320.7000;1.0623;0.9245;
321.0000;1.0623;0.9295;
321.3000;1.0631;0.9345;
321.6000;1.0696;0.9522;
321.9000;1.0623;0.9371;
322.2000;1.0615;0.9345;
322.5000;1.0623;0.9421;
322.8000;1.0631;0.9371;
323.1000;1.0631;0.9371;
323.4000;1.0623;0.9345;
323.7000;1.0623;0.9320;
324.0000;1.0663;0.9245;
324.3000;1.0631;0.9144;
324.6000;1.0631;0.9245;
324.9000;1.0606;0.9220;
325.2000;1.0631;0.9320;
325.5000;1.0639;0.9345;
325.8000;1.0606;0.9295;
326.1000;1.0639;0.9345;
326.4000;1.0631;0.9295;
326.7000;1.0639;0.9194;
327.0000;1.0615;0.9169;
327.3000;1.0615;0.9169;
327.6000;1.0639;0.9245;
327.9000;1.0631;0.9169;
328.2000;1.0631;0.9169;
328.5000;1.0631;0.9144;
328.8000;1.0631;0.9220;
329.1000;1.0663;0.9295;
329.4000;1.0663;0.9320;
329.7000;1.0688;0.9421;
330.0000;1.0558;0.9144;
330.3000;1.0631;0.9270;
330.6000;1.0647;0.9245;
330.9000;1.0631;0.9320;
331.2000;1.0631;0.9295;
331.5000;1.0639;0.9295;
331.8000;1.0623;0.9320;
332.1000;1.0631;0.9371;
332.4000;1.0606;0.9295;
332.7000;1.0639;0.9245;
333.0000;1.0680;0.9320;
333.3000;1.0623;0.9220;
333.6000;1.0631;0.9194;
333.9000;1.0631;0.9220;
334.2000;1.0647;0.9245;
334.5000;1.0582;0.9119;
334.8000;1.0598;0.9144;
335.1000;1.0606;0.9094;
335.4000;1.0623;0.9043;
335.7000;1.0631;0.9119;
336.0000;1.0631;0.9094;
336.3000;1.0590;0.8968;
336.6000;1.0631;0.9018;
336.9000;1.0631;0.9018;
337.2000;1.0623;0.8993;
337.5000;1.0639;0.9068;
337.8000;1.0582;0.8942;
338.1000;1.0631;0.9043;
338.4000;1.0615;0.9043;
338.7000;1.0631;0.9144;
339.0000;1.0647;0.9169;
339.3000;1.0623;0.9094;
339.6000;1.0647;0.9119;
339.9000;1.0655;0.9094;
340.2000;1.0631;0.9144;
340.5000;1.0647;0.9144;
340.8000;1.0663;0.9068;
341.1000;1.0623;0.9068;
341.4000;1.0647;0.9144;
341.7000;1.0623;0.9144;
342.0000;1.0631;0.9144;
342.3000;1.0631;0.9119;
342.6000;1.0631;0.9094;
342.9000;1.0647;0.9068;
343.2000;1.0631;0.9169;
343.5000;1.0615;0.9245;
343.8000;1.0623;0.9270;
344.1000;1.0623;0.9194;
344.4000;1.0631;0.9270;
344.7000;1.0623;0.9295;
345.0000;1.0639;0.9220;
345.3000;1.0631;0.9144;
345.6000;1.0631;0.9119;
345.9000;1.0631;0.9119;
346.2000;1.0623;0.9144;
346.5000;1.0598;0.9094;
346.8000;1.0623;0.9169;
347.1000;1.0623;0.9119;
347.4000;1.0631;0.9194;
347.7000;1.0615;0.9144;
348.0000;1.0639;0.9169;
348.3000;1.0647;0.9144;
348.6000;1.0647;0.9169;
348.9000;1.0631;0.9119;
349.2000;1.0639;0.9094;
349.5000;1.0639;0.9119;
349.8000;1.0639;0.9094;
350.1000;1.0623;0.9043;
350.4000;1.0623;0.9043;
350.7000;1.0631;0.8993;
351.0000;1.0631;0.9018;
351.3000;1.0631;0.9043;
351.6000;1.0631;0.9068;
351.9000;1.0623;0.9068;
352.2000;1.0623;0.9018;
352.5000;1.0623;0.8867;
352.8000;1.0606;0.8867;
353.1000;1.0615;0.8867;
353.4000;1.0631;0.8867;
353.7000;1.0647;0.8942;
354.0000;1.0623;0.8968;
354.3000;1.0704;0.9194;
354.6000;1.0623;0.9043;
354.9000;1.0639;0.9043;
355.2000;1.0623;0.8993;
355.5000;1.0623;0.9043;
355.8000;1.0639;0.9043;
356.1000;1.0623;0.9043;
356.4000;1.0647;0.9144;
356.7000;1.0615;0.9144;
357.0000;1.0615;0.9144;
357.3000;1.0615;0.9068;
357.6000;1.0623;0.8993;
357.9000;1.0631;0.9043;
358.2000;1.0598;0.8968;
358.5000;1.0647;0.9144;
358.8000;1.0672;0.9220;
359.1000;1.0623;0.9068;
359.4000;1.0639;0.9094;
359.7000;1.0639;0.9094;
360.0000;1.0623;0.9144;
360.3000;1.0672;0.9295;
360.6000;1.0615;0.9220;
360.9000;1.0623;0.9245;
361.2000;1.0623;0.9119;
361.5000;1.0631;0.9220;
361.8000;1.0615;0.9194;
362.1000;1.0615;0.9194;
362.4000;1.0606;0.9169;
362.7000;1.0615;0.9169;
363.0000;1.0590;0.9144;
363.3000;1.0615;0.9169;
363.6000;1.0615;0.9119;
363.9000;1.0631;0.9194;
364.2000;1.0615;0.9068;
364.5000;1.0623;0.9194;
364.8000;1.0631;0.9220;
365.1000;1.0623;0.9144;
365.4000;1.0639;0.9094;
365.7000;1.0623;0.9194;
366.0000;1.0631;0.9270;
366.3000;1.0631;0.9169;
366.6000;1.0615;0.9144;
366.9000;1.0615;0.9119;
367.2000;1.0639;0.9144;
367.5000;1.0631;0.9068;
367.8000;1.0623;0.9144;
368.1000;1.0606;0.9068;
368.4000;1.0631;0.9245;
368.7000;1.0631;0.9220;
369.0000;1.0615;0.9169;
369.3000;1.0598;0.9169;
369.6000;1.0631;0.9245;
369.9000;1.0615;0.9194;
370.2000;1.0615;0.9144;
370.5000;1.0606;0.9094;
370.8000;1.0631;0.9169;
371.1000;1.0631;0.9169;
371.4000;1.0631;0.9194;
371.7000;1.0623;0.9119;
372.0000;1.0623;0.9119;
372.3000;1.0631;0.9144;
372.6000;1.0598;0.9018;
372.9000;1.0615;0.9043;
373.2000;1.0623;0.8993;
373.5000;1.0663;0.9194;
373.8000;1.0623;0.9068;
374.1000;1.0574;0.8968;
374.4000;1.0598;0.9119;
374.7000;1.0623;0.9169;
375.0000;1.0615;0.9119;
375.3000;1.0631;0.9144;
375.6000;1.0623;0.9144;
375.9000;1.0639;0.9245;
376.2000;1.0663;0.9295;
376.5000;1.0598;0.9245;
376.8000;1.0598;0.9295;
377.1000;1.0615;0.9295;
377.4000;1.0631;0.9245;
377.7000;1.0606;0.9144;
378.0000;1.0623;0.9094;
378.3000;1.0623;0.9144;
378.6000;1.0623;0.9094;
378.9000;1.0631;0.9119;
379.2000;1.0639;0.9169;
379.5000;1.0606;0.9119;
379.8000;1.0672;0.9396;
380.1000;1.0623;0.9345;
380.4000;1.0631;0.9270;
380.7000;1.0615;0.9245;
381.0000;1.0606;0.9270;
381.3000;1.0574;0.9295;
381.6000;1.0623;0.9421;
381.9000;1.0615;0.9421;
382.2000;1.0615;0.9396;
382.5000;1.0623;0.9396;
382.8000;1.0623;0.9396;
383.1000;1.0623;0.9371;
383.4000;1.0615;0.9270;
383.7000;1.0631;0.9270;
384.0000;1.0606;0.9194;
384.3000;1.0623;0.9144;
384.6000;1.0631;0.9194;
384.9000;1.0631;0.9194;
385.2000;1.0631;0.9220;
385.5000;1.0623;0.9245;
385.8000;1.0623;0.9270;
386.1000;1.0615;0.9245;
386.4000;1.0647;0.9220;
386.7000;1.0623;0.9119;
387.0000;1.0639;0.9068;
387.3000;1.0615;0.8993;
387.6000;1.0623;0.9094;
387.9000;1.0631;0.9094;
388.2000;1.0598;0.9068;
388.5000;1.0582;0.8892;
388.8000;1.0615;0.9043;
389.1000;1.0598;0.9018;
389.4000;1.0631;0.9119;
389.7000;1.0590;0.9018;
390.0000;1.0623;0.9220;
390.3000;1.0590;0.9270;
390.6000;1.0623;0.9396;
390.9000;1.0615;0.9371;
391.2000;1.0615;0.9320;
391.5000;1.0615;0.9270;
391.8000;1.0615;0.9295;
392.1000;1.0598;0.9295;
392.4000;1.0615;0.9220;
392.7000;1.0590;0.9220;
393.0000;1.0631;0.9345;
393.3000;1.0663;0.9471;
393.6000;1.0615;0.9270;
393.9000;1.0615;0.9144;
394.2000;1.0598;0.9144;
394.5000;1.0639;0.9295;
394.8000;1.0615;0.9094;
395.1000;1.0615;0.9068;
395.4000;1.0623;0.9144;
395.7000;1.0615;0.9094;
396.0000;1.0590;0.9119;
396.3000;1.0615;0.9169;
396.6000;1.0615;0.9169;
396.9000;1.0680;0.9320;
397.2000;1.0598;0.9119;
397.5000;1.0606;0.9169;
397.8000;1.0639;0.9245;
398.1000;1.0631;0.9169;
398.4000;1.0615;0.9119;
398.7000;1.0623;0.9144;
399.0000;1.0606;0.9220;
399.3000;1.0647;0.9320;
399.6000;1.0647;0.9371;
399.9000;1.0631;0.9295;
400.2000;1.0574;0.9194;
400.5000;1.0623;0.9220;
400.8000;1.0615;0.9295;
401.1000;1.0598;0.9245;
401.4000;1.0639;0.9295;
401.7000;1.0623;0.9220;
402.0000;1.0533;0.9018;
402.3000;1.0606;0.9270;
402.6000;1.0582;0.9295;
402.9000;1.0590;0.9270;
403.2000;1.0631;0.9320;
403.5000;1.0606;0.9245;
403.8000;1.0615;0.9119;
404.1000;1.0631;0.9169;
404.4000;1.0631;0.9220;
404.7000;1.0623;0.9169;
405.0000;1.0623;0.9194;
405.3000;1.0558;0.9119;
405.6000;1.0631;0.9245;
405.9000;1.0623;0.9169;
406.2000;1.0631;0.9220;
406.5000;1.0598;0.9144;
406.8000;1.0606;0.9169;
407.1000;1.0615;0.9295;
407.4000;1.0598;0.9320;
407.7000;1.0606;0.9295;
408.0000;1.0615;0.9169;
408.3000;1.0615;0.9119;
408.6000;1.0615;0.9018;
408.9000;1.0598;0.8968;
409.2000;1.0615;0.9018;
409.5000;1.0623;0.8993;
409.8000;1.0606;0.9094;
410.1000;1.0606;0.8993;
410.4000;1.0598;0.8993;
410.7000;1.0615;0.9043;
411.0000;1.0623;0.9094;
411.3000;1.0606;0.9068;
411.6000;1.0590;0.9094;
411.9000;1.0623;0.9144;
412.2000;1.0615;0.9194;
412.5000;1.0598;0.9220;
412.8000;1.0582;0.9295;
413.1000;1.0655;0.9522;
413.4000;1.0549;0.9320;
413.7000;1.0598;0.9421;
414.0000;1.0598;0.9295;
414.3000;1.0541;0.9220;
414.6000;1.0541;0.9245;
414.9000;1.0623;0.9396;
415.2000;1.0582;0.9194;
415.5000;1.0639;0.9345;
415.8000;1.0590;0.9270;
416.1000;1.0623;0.9245;
416.4000;1.0606;0.9220;
416.7000;1.0623;0.9220;
417.0000;1.0615;0.9245;
417.3000;1.0639;0.9320;
417.6000;1.0623;0.9371;
417.9000;1.0606;0.9295;
418.2000;1.0615;0.9220;
418.5000;1.0598;0.9194;
418.8000;1.0639;0.9295;
419.1000;1.0615;0.9245;
419.4000;1.0615;0.9220;
419.7000;1.0623;0.9270;
420.0000;1.0639;0.9345;
420.3000;1.0623;0.9345;
420.6000;1.0598;0.9320;
420.9000;1.0615;0.9371;
421.2000;1.0606;0.9371;
421.5000;1.0623;0.9371;
421.8000;1.0623;0.9371;
422.1000;1.0590;0.9320;
422.4000;1.0615;0.9345;
422.7000;1.0631;0.9421;
423.0000;1.0615;0.9345;
423.3000;1.0639;0.9371;
423.6000;1.0663;0.9371;
423.9000;1.0606;0.9245;
424.2000;1.0606;0.9194;
424.5000;1.0615;0.9245;
424.8000;1.0582;0.9194;
425.1000;1.0590;0.9245;
425.4000;1.0680;0.9446;
425.7000;1.0615;0.9220;
426.0000;1.0623;0.9245;
426.3000;1.0615;0.9220;
426.6000;1.0647;0.9245;
426.9000;1.0631;0.9245;
427.2000;1.0615;0.9270;
427.5000;1.0623;0.9194;
427.8000;1.0598;0.9169;
428.1000;1.0606;0.9194;
428.4000;1.0639;0.9270;
428.7000;1.0623;0.9371;
429.0000;1.0598;0.9345;
429.3000;1.0615;0.9421;
429.6000;1.0606;0.9320;
429.9000;1.0623;0.9320;
430.2000;1.0623;0.9371;
430.5000;1.0606;0.9396;
430.8000;1.0582;0.9446;
431.1000;1.0631;0.9597;
431.4000;1.0590;0.9471;
431.7000;1.0623;0.9471;
432.0000;1.0598;0.9345;
432.3000;1.0623;0.9320;
432.6000;1.0631;0.9345;
432.9000;1.0606;0.9245;
433.2000;1.0623;0.9270;
433.5000;1.0631;0.9295;
433.8000;1.0631;0.9270;
434.1000;1.0615;0.9169;
434.4000;1.0623;0.9068;
434.7000;1.0606;0.9094;
435.0000;1.0598;0.9043;
435.3000;1.0615;0.9119;
435.6000;1.0615;0.9068;
435.9000;1.0615;0.9119;
436.2000;1.0606;0.9144;
436.5000;1.0615;0.9144;
436.8000;1.0615;0.9144;
437.1000;1.0582;0.9068;
437.4000;1.0598;0.9043;
437.7000;1.0623;0.9094;
438.0000;1.0582;0.9018;
438.3000;1.0574;0.8942;
438.6000;1.0582;0.8942;
438.9000;1.0606;0.8968;
439.2000;1.0558;0.8791;
439.5000;1.0590;0.8917;
439.8000;1.0590;0.8917;
440.1000;1.0615;0.8917;
440.4000;1.0590;0.8917;
440.7000;1.0590;0.8892;
441.0000;1.0598;0.8917;
441.3000;1.0598;0.8892;
441.6000;1.0606;0.8942;
441.9000;1.0606;0.8968;
442.2000;1.0598;0.8968;
442.5000;1.0606;0.9018;
442.8000;1.0615;0.9094;
443.1000;1.0615;0.9068;
443.4000;1.0615;0.9068;
443.7000;1.0598;0.9068;
444.0000;1.0615;0.9068;
444.3000;1.0623;0.8993;
444.6000;1.0606;0.8993;
444.9000;1.0606;0.9094;
445.2000;1.0606;0.9043;
445.5000;1.0615;0.9068;
445.8000;1.0590;0.8942;
446.1000;1.0615;0.9018;
446.4000;1.0606;0.8942;
446.7000;1.0615;0.8968;
447.0000;1.0574;0.8917;
447.3000;1.0623;0.8993;
447.6000;1.0623;0.8942;
447.9000;1.0615;0.8968;
448.2000;1.0655;0.9068;
448.5000;1.0598;0.8917;
448.8000;1.0598;0.8892;
449.1000;1.0606;0.8917;
449.4000;1.0631;0.8968;
449.7000;1.0541;0.8741;
450.0000;1.0623;0.8968;
450.3000;1.0623;0.8842;
450.6000;1.0606;0.8766;
450.9000;1.0598;0.8791;
451.2000;1.0606;0.8867;
451.5000;1.0639;0.9043;
451.8000;1.0606;0.8968;
452.1000;1.0615;0.8917;
452.4000;1.0623;0.8917;
452.7000;1.0615;0.8867;
453.0000;1.0623;0.8942;
453.3000;1.0623;0.8968;
453.6000;1.0623;0.8942;
453.9000;1.0615;0.8892;
454.2000;1.0615;0.8942;
454.5000;1.0598;0.8968;
454.8000;1.0623;0.9068;
455.1000;1.0606;0.9018;
455.4000;1.0574;0.9018;
455.7000;1.0606;0.9144;
456.0000;1.0582;0.9119;
456.3000;1.0590;0.9094;
456.6000;1.0606;0.9220;
456.9000;1.0606;0.9270;
457.2000;1.0606;0.9245;
457.5000;1.0590;0.9270;
457.8000;1.0606;0.9270;
458.1000;1.0615;0.9295;
458.4000;1.0615;0.9245;
458.7000;1.0623;0.9270;
459.0000;1.0574;0.9119;
459.3000;1.0623;0.9245;
459.6000;1.0623;0.9295;
459.9000;1.0606;0.9194;
460.2000;1.0631;0.9169;
460.5000;1.0598;0.9043;
460.8000;1.0623;0.9068;
461.1000;1.0606;0.9043;
461.4000;1.0623;0.9094;
461.7000;1.0590;0.9119;
462.0000;1.0598;0.9119;
462.3000;1.0598;0.9094;
462.6000;1.0598;0.9169;
462.9000;1.0590;0.9194;
463.2000;1.0623;0.9220;
463.5000;1.0590;0.9245;
463.8000;1.0590;0.9245;
464.1000;1.0590;0.9245;
464.4000;1.0615;0.9345;
464.7000;1.0615;0.9421;
465.0000;1.0606;0.9320;
465.3000;1.0606;0.9320;
465.6000;1.0598;0.9245;
465.9000;1.0680;0.9446;
466.2000;1.0598;0.9245;
466.5000;1.0598;0.9220;
466.8000;1.0606;0.9245;
467.1000;1.0615;0.9245;
467.4000;1.0582;0.9169;
467.7000;1.0598;0.9169;
468.0000;1.0615;0.9245;
468.3000;1.0590;0.9194;
468.6000;1.0606;0.9220;
468.9000;1.0590;0.9144;
469.2000;1.0623;0.9194;
469.5000;1.0598;0.9119;
469.8000;1.0590;0.9119;
470.1000;1.0590;0.9094;
470.4000;1.0606;0.9169;
470.7000;1.0615;0.9094;
471.0000;1.0590;0.9144;
471.3000;1.0598;0.9169;
471.6000;1.0606;0.9144;
471.9000;1.0647;0.9295;
472.2000;1.0623;0.9169;
472.5000;1.0606;0.9194;
472.8000;1.0590;0.9194;
473.1000;1.0623;0.9245;
473.4000;1.0590;0.9245;
473.7000;1.0590;0.9270;
474.0000;1.0590;0.9194;
474.3000;1.0590;0.9169;
474.6000;1.0606;0.9220;
474.9000;1.0590;0.9194;
475.2000;1.0582;0.9270;
475.5000;1.0606;0.9270;
475.8000;1.0606;0.9295;
476.1000;1.0598;0.9320;
476.4000;1.0631;0.9497;
476.7000;1.0574;0.9270;
477.0000;1.0606;0.9245;
477.3000;1.0606;0.9320;
477.6000;1.0590;0.9270;
477.9000;1.0582;0.9194;
478.2000;1.0615;0.9220;
478.5000;1.0590;0.9144;
478.8000;1.0598;0.9220;
479.1000;1.0582;0.9245;
479.4000;1.0598;0.9194;
479.7000;1.0590;0.9194;
480.0000;1.0606;0.9194;
480.3000;1.0606;0.9144;
480.6000;1.0566;0.9094;
480.9000;1.0623;0.9245;
481.2000;1.0606;0.9245;
481.5000;1.0606;0.9295;
481.8000;1.0615;0.9270;
482.1000;1.0606;0.9295;
482.4000;1.0606;0.9194;
482.7000;1.0606;0.9245;
483.0000;1.0606;0.9220;
483.3000;1.0606;0.9320;
483.6000;1.0615;0.9270;
483.9000;1.0606;0.9270;
484.2000;1.0606;0.9295;
484.5000;1.0582;0.9295;
484.8000;1.0606;0.9371;
485.1000;1.0606;0.9371;
485.4000;1.0574;0.9245;
485.7000;1.0606;0.9295;
486.0000;1.0606;0.9320;
486.3000;1.0680;0.9497;
486.6000;1.0590;0.9371;
486.9000;1.0582;0.9396;
487.2000;1.0606;0.9396;
487.5000;1.0606;0.9396;
487.8000;1.0598;0.9345;
488.1000;1.0598;0.9295;
488.4000;1.0615;0.9320;
488.7000;1.0615;0.9295;
489.0000;1.0663;0.9471;
489.3000;1.0590;0.9169;
489.6000;1.0598;0.9144;
489.9000;1.0582;0.9144;
490.2000;1.0598;0.9194;
490.5000;1.0533;0.9018;
490.8000;1.0615;0.9220;
491.1000;1.0541;0.9068;
491.4000;1.0606;0.9194;
491.7000;1.0590;0.9094;
492.0000;1.0582;0.9043;
492.3000;1.0639;0.9144;
492.6000;1.0623;0.9169;
492.9000;1.0639;0.9194;
493.2000;1.0615;0.9245;
493.5000;1.0623;0.9396;
493.8000;1.0615;0.9371;
494.1000;1.0639;0.9421;
494.4000;1.0566;0.9068;
494.7000;1.0606;0.9194;
495.0000;1.0615;0.9245;
495.3000;1.0574;0.9169;
495.6000;1.0623;0.9320;
495.9000;1.0598;0.9320;
496.2000;1.0606;0.9320;
496.5000;1.0598;0.9295;
496.8000;1.0590;0.9245;
497.1000;1.0615;0.9270;
497.4000;1.0598;0.9220;
497.7000;1.0598;0.9169;
498.0000;1.0582;0.9144;
498.3000;1.0582;0.9144;
498.6000;1.0615;0.9169;
498.9000;1.0606;0.9194;
499.2000;1.0615;0.9169;
499.5000;1.0582;0.9068;
499.8000;1.0615;0.9194;
500.1000;1.0598;0.9169;
500.4000;1.0606;0.9194;
500.7000;1.0598;0.9169;
501.0000;1.0574;0.9094;
501.3000;1.0606;0.9245;
501.6000;1.0590;0.9320;
501.9000;1.0590;0.9320;
502.2000;1.0582;0.9345;
502.5000;1.0606;0.9421;
502.8000;1.0606;0.9345;
503.1000;1.0598;0.9396;
503.4000;1.0606;0.9396;
503.7000;1.0590;0.9320;
504.0000;1.0598;0.9345;
504.3000;1.0598;0.9295;
504.6000;1.0582;0.9320;
504.9000;1.0582;0.9270;
505.2000;1.0615;0.9295;
505.5000;1.0598;0.9295;
505.8000;1.0582;0.9295;
506.1000;1.0574;0.9270;
506.4000;1.0615;0.9320;
506.7000;1.0606;0.9396;
507.0000;1.0606;0.9421;
507.3000;1.0590;0.9396;
507.6000;1.0582;0.9295;
507.9000;1.0598;0.9295;
508.2000;1.0598;0.9320;
508.5000;1.0631;0.9421;
508.8000;1.0598;0.9320;
509.1000;1.0680;0.9522;
509.4000;1.0598;0.9245;
509.7000;1.0582;0.9194;
510.0000;1.0558;0.9169;
510.3000;1.0590;0.9094;
510.6000;1.0574;0.9119;
510.9000;1.0574;0.9119;
511.2000;1.0533;0.9119;
511.5000;1.0582;0.9194;
511.8000;1.0623;0.9270;
512.1000;1.0615;0.9295;
512.4000;1.0558;0.9245;
512.7000;1.0574;0.9295;
513.0000;1.0615;0.9396;
513.3000;1.0606;0.9371;
513.6000;1.0615;0.9396;
513.9000;1.0631;0.9396;
514.2000;1.0606;0.9396;
514.5000;1.0590;0.9320;
514.8000;1.0590;0.9295;
515.1000;1.0582;0.9396;
515.4000;1.0590;0.9421;
515.7000;1.0606;0.9471;
516.0000;1.0566;0.9345;
516.3000;1.0582;0.9345;
516.6000;1.0598;0.9320;
516.9000;1.0623;0.9396;
517.2000;1.0590;0.9371;
517.5000;1.0590;0.9320;
517.8000;1.0598;0.9194;
518.1000;1.0606;0.9220;
518.4000;1.0582;0.9220;
518.7000;1.0606;0.9220;
519.0000;1.0606;0.9220;
519.3000;1.0606;0.9295;
519.6000;1.0598;0.9270;
519.9000;1.0590;0.9169;
520.2000;1.0598;0.9169;
520.5000;1.0582;0.9068;
520.8000;1.0606;0.9119;
521.1000;1.0598;0.9194;
521.4000;1.0598;0.9270;
521.7000;1.0566;0.9220;
522.0000;1.0590;0.9245;
522.3000;1.0574;0.9270;
522.6000;1.0590;0.9320;
522.9000;1.0582;0.9345;
523.2000;1.0606;0.9421;
523.5000;1.0574;0.9371;
523.8000;1.0582;0.9371;
524.1000;1.0574;0.9345;
524.4000;1.0582;0.9371;
524.7000;1.0590;0.9295;
525.0000;1.0606;0.9320;
525.3000;1.0598;0.9371;
525.6000;1.0533;0.9119;
525.9000;1.0582;0.9169;
526.2000;1.0590;0.9119;
526.5000;1.0598;0.9144;
526.8000;1.0598;0.9068;
527.1000;1.0598;0.9094;
527.4000;1.0590;0.9068;
527.7000;1.0590;0.9094;
528.0000;1.0598;0.9119;
528.3000;1.0582;0.9094;
528.6000;1.0631;0.9220;
528.9000;1.0590;0.9094;
529.2000;1.0541;0.8968;
529.5000;1.0631;0.9320;
529.8000;1.0598;0.9245;
530.1000;1.0606;0.9144;
530.4000;1.0598;0.9119;
530.7000;1.0590;0.9169;
531.0000;1.0590;0.9144;
531.3000;1.0574;0.9094;
531.6000;1.0606;0.9169;
531.9000;1.0590;0.9094;
532.2000;1.0606;0.9245;
532.5000;1.0574;0.9194;
532.8000;1.0590;0.9245;
533.1000;1.0639;0.9421;
533.4000;1.0582;0.9194;
533.7000;1.0582;0.9220;
534.0000;1.0590;0.9220;
534.3000;1.0590;0.9169;
534.6000;1.0582;0.9144;
534.9000;1.0566;0.9119;
535.2000;1.0566;0.9119;
535.5000;1.0582;0.9094;
535.8000;1.0598;0.9119;
536.1000;1.0566;0.9119;
536.4000;1.0582;0.9119;
536.7000;1.0582;0.9119;
537.0000;1.0582;0.9094;
537.3000;1.0582;0.9169;
537.6000;1.0574;0.9169;
537.9000;1.0566;0.9119;
538.2000;1.0582;0.9119;
538.5000;1.0582;0.9094;
538.8000;1.0590;0.9194;
539.1000;1.0590;0.9169;
539.4000;1.0549;0.9094;
539.7000;1.0566;0.9220;
540.0000;1.0549;0.9245;
540.3000;1.0574;0.9270;
540.6000;1.0590;0.9320;
540.9000;1.0590;0.9295;
541.2000;1.0582;0.9194;
541.5000;1.0566;0.9094;
541.8000;1.0590;0.9018;
542.1000;1.0590;0.9018;
542.4000;1.0582;0.9094;
542.7000;1.0615;0.9245;
543.0000;1.0566;0.9144;
543.3000;1.0574;0.9169;
543.6000;1.0598;0.9169;
543.9000;1.0606;0.9094;
544.2000;1.0615;0.9119;
544.5000;1.0582;0.9043;
544.8000;1.0623;0.9144;
545.1000;1.0574;0.8993;
545.4000;1.0549;0.8968;
545.7000;1.0574;0.8968;
546.0000;1.0541;0.8892;
546.3000;1.0558;0.8968;
546.6000;1.0558;0.9018;
546.9000;1.0541;0.9018;
547.2000;1.0574;0.9144;
547.5000;1.0582;0.9119;
547.8000;1.0582;0.9119;
548.1000;1.0566;0.9144;
548.4000;1.0582;0.9144;
548.7000;1.0598;0.9169;
549.0000;1.0590;0.9119;
549.3000;1.0566;0.9119;
549.6000;1.0582;0.9245;
549.9000;1.0582;0.9295;
550.2000;1.0582;0.9245;
550.5000;1.0558;0.9169;
550.8000;1.0574;0.9295;
551.1000;1.0566;0.9295;
551.4000;1.0606;0.9345;
551.7000;1.0598;0.9320;
552.0000;1.0606;0.9295;
552.3000;1.0655;0.9345;
552.6000;1.0606;0.9220;
552.9000;1.0582;0.9194;
553.2000;1.0574;0.9245;
553.5000;1.0590;0.9169;
553.8000;1.0590;0.9169;
554.1000;1.0598;0.9245;
554.4000;1.0574;0.9194;
554.7000;1.0598;0.9245;
555.0000;1.0590;0.9169;
555.3000;1.0590;0.9194;
555.6000;1.0582;0.9245;
555.9000;1.0525;0.9119;
556.2000;1.0574;0.9295;
556.5000;1.0574;0.9295;
556.8000;1.0541;0.9295;
557.1000;1.0582;0.9320;
557.4000;1.0590;0.9295;
557.7000;1.0590;0.9220;
558.0000;1.0574;0.9119;
558.3000;1.0582;0.9220;
558.6000;1.0606;0.9220;
558.9000;1.0598;0.9220;
559.2000;1.0606;0.9320;
559.5000;1.0598;0.9295;
559.8000;1.0598;0.9220;
560.1000;1.0606;0.9345;
560.4000;1.0598;0.9421;
560.7000;1.0606;0.9396;
561.0000;1.0574;0.9295;
561.3000;1.0590;0.9320;
561.6000;1.0574;0.9345;
561.9000;1.0566;0.9320;
562.2000;1.0582;0.9320;
562.5000;1.0590;0.9295;
562.8000;1.0590;0.9295;
563.1000;1.0582;0.9245;
563.4000;1.0639;0.9320;
563.7000;1.0655;0.9371;
564.0000;1.0615;0.9270;
564.3000;1.0598;0.9270;
564.6000;1.0582;0.9169;
564.9000;1.0574;0.9220;
565.2000;1.0606;0.9270;
565.5000;1.0606;0.9245;
565.8000;1.0582;0.9270;
566.1000;1.0606;0.9295;
566.4000;1.0566;0.9245;
566.7000;1.0598;0.9295;
567.0000;1.0598;0.9320;
567.3000;1.0582;0.9270;
567.6000;1.0582;0.9194;
567.9000;1.0606;0.9270;
568.2000;1.0582;0.9094;
568.5000;1.0566;0.9043;
568.8000;1.0598;0.9169;
569.1000;1.0590;0.9194;
569.4000;1.0558;0.9169;
569.7000;1.0574;0.9320;
570.0000;1.0574;0.9320;
570.3000;1.0582;0.9345;
570.6000;1.0582;0.9320;
570.9000;1.0606;0.9371;
571.2000;1.0590;0.9345;
571.5000;1.0606;0.9371;
571.8000;1.0598;0.9396;
572.1000;1.0574;0.9320;
572.4000;1.0574;0.9245;
572.7000;1.0582;0.9245;
573.0000;1.0582;0.9245;
573.3000;1.0598;0.9220;
573.6000;1.0582;0.9194;
573.9000;1.0574;0.9345;
574.2000;1.0590;0.9345;
574.5000;1.0598;0.9295;
574.8000;1.0558;0.9169;
575.1000;1.0598;0.9220;
575.4000;1.0590;0.9245;
575.7000;1.0582;0.9270;
576.0000;1.0590;0.9295;
576.3000;1.0590;0.9270;
576.6000;1.0582;0.9270;
576.9000;1.0566;0.9245;
577.2000;1.0558;0.9169;
577.5000;1.0566;0.9068;
577.8000;1.0558;0.9043;
578.1000;1.0558;0.9119;
578.4000;1.0566;0.9119;
578.7000;1.0574;0.9119;
579.0000;1.0566;0.9119;
579.3000;1.0574;0.9144;
579.6000;1.0574;0.9194;
579.9000;1.0566;0.9119;
580.2000;1.0574;0.9144;
580.5000;1.0566;0.9119;
580.8000;1.0566;0.9144;
581.1000;1.0558;0.9119;
581.4000;1.0549;0.9094;
581.7000;1.0558;0.9043;
582.0000;1.0558;0.9068;
582.3000;1.0582;0.9119;
582.6000;1.0558;0.9043;
582.9000;1.0582;0.9119;
583.2000;1.0566;0.9018;
583.5000;1.0574;0.8892;
583.8000;1.0582;0.8867;
584.1000;1.0590;0.8942;
584.4000;1.0590;0.8942;
584.7000;1.0590;0.9018;
585.0000;1.0549;0.8968;
585.3000;1.0590;0.8968;
585.6000;1.0582;0.8942;
585.9000;1.0598;0.8993;
586.2000;1.0582;0.9018;
586.5000;1.0590;0.9119;
586.8000;1.0582;0.9270;
587.1000;1.0582;0.9220;
587.4000;1.0582;0.9144;
587.7000;1.0582;0.9144;
588.0000;1.0509;0.8942;
588.3000;1.0606;0.9169;
588.6000;1.0574;0.9270;
588.9000;1.0582;0.9270;
589.2000;1.0615;0.9371;
589.5000;1.0566;0.9270;
589.8000;1.0590;0.9220;
590.1000;1.0582;0.9169;
590.4000;1.0606;0.9295;
590.7000;1.0574;0.9194;
591.0000;1.0574;0.9194;
591.3000;1.0615;0.9194;
591.6000;1.0574;0.9043;
591.9000;1.0582;0.9144;
592.2000;1.0566;0.9068;
592.5000;1.0590;0.9144;
592.8000;1.0566;0.9169;
593.1000;1.0582;0.9220;
593.4000;1.0582;0.9144;
593.7000;1.0566;0.9169;
594.0000;1.0566;0.9194;
594.3000;1.0631;0.9371;
594.6000;1.0574;0.9245;
594.9000;1.0574;0.9295;
595.2000;1.0566;0.9245;
595.5000;1.0566;0.9295;
595.8000;1.0558;0.9295;
596.1000;1.0582;0.9270;
596.4000;1.0566;0.9144;
596.7000;1.0566;0.9144;
597.0000;1.0590;0.9169;
597.3000;1.0590;0.9144;
597.6000;1.0582;0.9119;
597.9000;1.0566;0.9094;
598.2000;1.0558;0.9094;
598.5000;1.0590;0.9194;
598.8000;1.0566;0.9119;
599.1000;1.0606;0.9169;
599.4000;1.0566;0.9144;
599.7000;1.0574;0.9245;
600.0000;1.0574;0.9220;
600.3000;1.0574;0.9068;
600.6000;1.0525;0.8816;
600.9000;1.0517;0.8791;
601.2000;1.0452;0.8565;
601.5000;1.0346;0.8363;
601.8000;1.0281;0.8136;
602.1000;1.0183;0.7985;
602.4000;1.0102;0.7859;
602.7000;0.9988;0.7557;
603.0000;0.9931;0.7456;
603.3000;0.9858;0.7406;
603.6000;0.9801;0.7280;
603.9000;0.9703;0.7154;
604.2000;0.9638;0.7028;
604.5000;0.9605;0.7078;
604.8000;0.9540;0.7003;
605.1000;0.9483;0.6902;
605.4000;0.9426;0.6852;
605.7000;0.9353;0.6625;
606.0000;0.9328;0.6625;
606.3000;0.9280;0.6449;
606.6000;0.9247;0.6423;
606.9000;0.9190;0.6423;
607.2000;0.9133;0.6373;
607.5000;0.9117;0.6474;
607.8000;0.9076;0.6398;
608.1000;0.9027;0.6323;
608.4000;0.9011;0.6323;
608.7000;0.8938;0.6146;
609.0000;0.8905;0.6172;
609.3000;0.8889;0.6172;
609.6000;0.8864;0.6096;
609.9000;0.8856;0.6121;
610.2000;0.8791;0.5995;
610.5000;0.8767;0.5995;
610.8000;0.8734;0.5995;
611.1000;0.8726;0.6071;
611.4000;0.8677;0.6046;
611.7000;0.8661;0.6071;
612.0000;0.8612;0.5995;
612.3000;0.8612;0.5970;
612.6000;0.8555;0.5995;
612.9000;0.8539;0.5920;
613.2000;0.8490;0.5769;
613.5000;0.8490;0.5869;
613.8000;0.8466;0.5970;
614.1000;0.8425;0.5894;
614.4000;0.8409;0.5970;
614.7000;0.8384;0.5945;
615.0000;0.8376;0.5995;
615.3000;0.8376;0.5970;
615.6000;0.8327;0.5869;
615.9000;0.8230;0.5592;
616.2000;0.8311;0.5844;
616.5000;0.8278;0.5794;
616.8000;0.8246;0.5743;
617.1000;0.8213;0.5769;
617.4000;0.8221;0.5794;
617.7000;0.8278;0.5894;
618.0000;0.8197;0.5718;
618.3000;0.8156;0.5592;
618.6000;0.8156;0.5668;
618.9000;0.8132;0.5718;
619.2000;0.8091;0.5693;
619.5000;0.8124;0.5869;
619.8000;0.8091;0.5894;
620.1000;0.8059;0.5794;
620.4000;0.8059;0.5869;
620.7000;0.8034;0.5819;
621.0000;0.8010;0.5769;
621.3000;0.7993;0.5794;
621.6000;0.7977;0.5869;
621.9000;0.7961;0.5869;
622.2000;0.7937;0.5769;
622.5000;0.7945;0.5794;
622.8000;0.7920;0.5819;
623.1000;0.7937;0.5869;
623.4000;0.7993;0.6071;
623.7000;0.7904;0.5819;
624.0000;0.7880;0.5819;
624.3000;0.7855;0.5769;
624.6000;0.7831;0.5693;
624.9000;0.7847;0.5794;
625.2000;0.7823;0.5869;
625.5000;0.7806;0.5894;
625.8000;0.7839;0.6071;
626.1000;0.7774;0.5920;
626.4000;0.7790;0.5945;
626.7000;0.7823;0.6020;
627.0000;0.7757;0.5894;
627.3000;0.7733;0.5769;
627.6000;0.7741;0.5794;
627.9000;0.7717;0.5743;
628.2000;0.7709;0.5769;
628.5000;0.7700;0.5743;
628.8000;0.7684;0.5769;
629.1000;0.7700;0.5819;
629.4000;0.7676;0.5743;
629.7000;0.7660;0.5769;
630.0000;0.7660;0.5743;
630.3000;0.7643;0.5643;
630.6000;0.7635;0.5668;
630.9000;0.7603;0.5592;
631.2000;0.7619;0.5718;
631.5000;0.7627;0.5693;
631.8000;0.7603;0.5668;
632.1000;0.7595;0.5693;
632.4000;0.7595;0.5718;
632.7000;0.7586;0.5769;
633.0000;0.7595;0.5844;
633.3000;0.7554;0.5743;
633.6000;0.7546;0.5794;
633.9000;0.7530;0.5769;
634.2000;0.7554;0.5844;
634.5000;0.7538;0.5794;
634.8000;0.7505;0.5769;
635.1000;0.7464;0.5643;
635.4000;0.7505;0.5819;
635.7000;0.7505;0.5819;
636.0000;0.7489;0.5769;
636.3000;0.7538;0.6046;
636.6000;0.7497;0.5920;
636.9000;0.7448;0.5769;
637.2000;0.7489;0.5743;
637.5000;0.7448;0.5643;
637.8000;0.7464;0.5718;
638.1000;0.7424;0.5567;
638.4000;0.7407;0.5517;
638.7000;0.7383;0.5542;
639.0000;0.7416;0.5743;
639.3000;0.7407;0.5769;
639.6000;0.7399;0.5769;
639.9000;0.7375;0.5693;
640.2000;0.7383;0.5743;
640.5000;0.7416;0.5894;
640.8000;0.7350;0.5718;
641.1000;0.7350;0.5643;
641.4000;0.7342;0.5592;
641.7000;0.7277;0.5441;
642.0000;0.7342;0.5567;
642.3000;0.7342;0.5542;
642.6000;0.7342;0.5567;
642.9000;0.7350;0.5517;
643.2000;0.7302;0.5517;
643.5000;0.7318;0.5466;
643.8000;0.7318;0.5466;
644.1000;0.7285;0.5491;
644.4000;0.7293;0.5567;
644.7000;0.7293;0.5517;
645.0000;0.7269;0.5391;
645.3000;0.7277;0.5542;
645.6000;0.7261;0.5517;
645.9000;0.7253;0.5441;
646.2000;0.7245;0.5315;
646.5000;0.7277;0.5542;
646.8000;0.7253;0.5441;
647.1000;0.7269;0.5491;
647.4000;0.7236;0.5517;
647.7000;0.7253;0.5643;
648.0000;0.7212;0.5517;
648.3000;0.7220;0.5643;
648.6000;0.7163;0.5466;
648.9000;0.7204;0.5693;
649.2000;0.7155;0.5617;
649.5000;0.7188;0.5769;
649.8000;0.7196;0.5668;
650.1000;0.7171;0.5617;
650.4000;0.7163;0.5718;
650.7000;0.7188;0.5769;
651.0000;0.7155;0.5643;
651.3000;0.7155;0.5643;
651.6000;0.7155;0.5743;
651.9000;0.7147;0.5718;
652.2000;0.7155;0.5718;
652.5000;0.7131;0.5668;
652.8000;0.7131;0.5643;
653.1000;0.7139;0.5617;
653.4000;0.7114;0.5592;
653.7000;0.7131;0.5592;
654.0000;0.7123;0.5592;
654.3000;0.7123;0.5617;
654.6000;0.7074;0.5517;
654.9000;0.7090;0.5592;
655.2000;0.7106;0.5617;
655.5000;0.7106;0.5592;
655.8000;0.7082;0.5517;
656.1000;0.7082;0.5491;
656.4000;0.7090;0.5592;
656.7000;0.7082;0.5668;
657.0000;0.7090;0.5693;
657.3000;0.7114;0.5668;
657.6000;0.7049;0.5567;
657.9000;0.7057;0.5517;
658.2000;0.7082;0.5592;
658.5000;0.7041;0.5592;
658.8000;0.7057;0.5668;
659.1000;0.7025;0.5592;
659.4000;0.7033;0.5592;
659.7000;0.7025;0.5542;
660.0000;0.7041;0.5592;
660.3000;0.6952;0.5416;
660.6000;0.7025;0.5567;
660.9000;0.7009;0.5567;
661.2000;0.7000;0.5617;
661.5000;0.7009;0.5668;
661.8000;0.7000;0.5592;
662.1000;0.7000;0.5643;
662.4000;0.6984;0.5718;
662.7000;0.6976;0.5567;
663.0000;0.6960;0.5668;
663.3000;0.6976;0.5743;
663.6000;0.6984;0.5718;
663.9000;0.6960;0.5668;
664.2000;0.6976;0.5718;
664.5000;0.6968;0.5718;
664.8000;0.7009;0.5869;
665.1000;0.6976;0.5794;
665.4000;0.6952;0.5718;
665.7000;0.6976;0.5794;
666.0000;0.6943;0.5668;
666.3000;0.6943;0.5592;
666.6000;0.6935;0.5567;
666.9000;0.6943;0.5592;
667.2000;0.6952;0.5617;
667.5000;0.6919;0.5542;
667.8000;0.6927;0.5617;
668.1000;0.6943;0.5668;
668.4000;0.6919;0.5668;
668.7000;0.6911;0.5668;
669.0000;0.6919;0.5743;
669.3000;0.6895;0.5643;
669.6000;0.6919;0.5643;
669.9000;0.6919;0.5718;
670.2000;0.6911;0.5743;
670.5000;0.6886;0.5769;
670.8000;0.6870;0.5643;
671.1000;0.6903;0.5668;
671.4000;0.6886;0.5592;
671.7000;0.6895;0.5567;
672.0000;0.6886;0.5617;
672.3000;0.6895;0.5718;
672.6000;0.6886;0.5718;
672.9000;0.6878;0.5718;
673.2000;0.6870;0.5794;
673.5000;0.6862;0.5819;
673.8000;0.6862;0.5718;
674.1000;0.6862;0.5617;
674.4000;0.6838;0.5617;
674.7000;0.6854;0.5567;
675.0000;0.6838;0.5491;
675.3000;0.6829;0.5517;
675.6000;0.6895;0.5718;
675.9000;0.6846;0.5668;
676.2000;0.6838;0.5693;
676.5000;0.6838;0.5693;
676.8000;0.6821;0.5693;
677.1000;0.6813;0.5718;
677.4000;0.6838;0.5819;
677.7000;0.6829;0.5743;
678.0000;0.6821;0.5743;
678.3000;0.6805;0.5743;
678.6000;0.6813;0.5668;
678.9000;0.6829;0.5643;
679.2000;0.6797;0.5592;
679.5000;0.6789;0.5643;
679.8000;0.6797;0.5718;
680.1000;0.6821;0.5769;
680.4000;0.6789;0.5718;
680.7000;0.6789;0.5718;
681.0000;0.6781;0.5718;
681.3000;0.6781;0.5643;
681.6000;0.6789;0.5668;
681.9000;0.6781;0.5693;
682.2000;0.6781;0.5693;
682.5000;0.6797;0.5668;
682.8000;0.6789;0.5718;
683.1000;0.6772;0.5668;
683.4000;0.6772;0.5743;
683.7000;0.6764;0.5693;
684.0000;0.6764;0.5819;
684.3000;0.6748;0.5794;
684.6000;0.6756;0.5693;
684.9000;0.6740;0.5668;
685.2000;0.6756;0.5693;
685.5000;0.6748;0.5668;
685.8000;0.6781;0.5718;
686.1000;0.6732;0.5542;
686.4000;0.6740;0.5542;
686.7000;0.6748;0.5517;
687.0000;0.6724;0.5491;
687.3000;0.6740;0.5567;
687.6000;0.6740;0.5592;
687.9000;0.6716;0.5617;
688.2000;0.6724;0.5592;
688.5000;0.6724;0.5693;
688.8000;0.6732;0.5567;
689.1000;0.6724;0.5542;
689.4000;0.6707;0.5592;
689.7000;0.6699;0.5617;
690.0000;0.6707;0.5617;
690.3000;0.6716;0.5668;
690.6000;0.6691;0.5718;
690.9000;0.6691;0.5643;
691.2000;0.6707;0.5617;
691.5000;0.6707;0.5592;
691.8000;0.6707;0.5567;
692.1000;0.6699;0.5718;
692.4000;0.6707;0.5718;
692.7000;0.6699;0.5718;
693.0000;0.6707;0.5743;
693.3000;0.6699;0.5718;
693.6000;0.6683;0.5693;
693.9000;0.6699;0.5693;
694.2000;0.6716;0.5769;
694.5000;0.6691;0.5743;
694.8000;0.6675;0.5643;
695.1000;0.6659;0.5592;
695.4000;0.6675;0.5668;
695.7000;0.6659;0.5743;
696.0000;0.6659;0.5743;
696.3000;0.6699;0.5920;
696.6000;0.6642;0.5718;
696.9000;0.6716;0.5869;
697.2000;0.6667;0.5769;
697.5000;0.6642;0.5617;
697.8000;0.6650;0.5592;
698.1000;0.6659;0.5592;
698.4000;0.6634;0.5517;
698.7000;0.6642;0.5517;
699.0000;0.6642;0.5517;
699.3000;0.6650;0.5542;
699.6000;0.6634;0.5567;
699.9000;0.6642;0.5617;
700.2000;0.6642;0.5643;
700.5000;0.6634;0.5592;
700.8000;0.6634;0.5542;
701.1000;0.6618;0.5517;
701.4000;0.6642;0.5617;
701.7000;0.6618;0.5567;
702.0000;0.6610;0.5617;
702.3000;0.6610;0.5542;
702.6000;0.6626;0.5542;
702.9000;0.6626;0.5542;
703.2000;0.6610;0.5441;
703.5000;0.6602;0.5517;
703.8000;0.6610;0.5617;
704.1000;0.6626;0.5718;
704.4000;0.6610;0.5668;
704.7000;0.6602;0.5592;
705.0000;0.6593;0.5643;
705.3000;0.6593;0.5617;
705.6000;0.6545;0.5466;
705.9000;0.6512;0.5441;
706.2000;0.6593;0.5643;
706.5000;0.6602;0.5643;
706.8000;0.6593;0.5567;
707.1000;0.6512;0.5315;
707.4000;0.6585;0.5567;
707.7000;0.6577;0.5491;
708.0000;0.6593;0.5567;
708.3000;0.6602;0.5592;
708.6000;0.6561;0.5441;
708.9000;0.6577;0.5491;
709.2000;0.6577;0.5517;
709.5000;0.6593;0.5592;
709.8000;0.6553;0.5517;
710.1000;0.6561;0.5441;
710.4000;0.6553;0.5441;
710.7000;0.6569;0.5517;
711.0000;0.6553;0.5517;
711.3000;0.6512;0.5466;
711.6000;0.6561;0.5567;
711.9000;0.6561;0.5643;
712.2000;0.6561;0.5643;
712.5000;0.6561;0.5693;
712.8000;0.6553;0.5592;
713.1000;0.6561;0.5542;
713.4000;0.6561;0.5517;
713.7000;0.6504;0.5391;
714.0000;0.6561;0.5567;
714.3000;0.6553;0.5517;
714.6000;0.6536;0.5517;
714.9000;0.6553;0.5466;
715.2000;0.6528;0.5441;
715.5000;0.6545;0.5466;
715.8000;0.6545;0.5542;
716.1000;0.6520;0.5517;
716.4000;0.6553;0.5491;
716.7000;0.6528;0.5491;
717.0000;0.6528;0.5491;
717.3000;0.6536;0.5643;
717.6000;0.6536;0.5693;
717.9000;0.6528;0.5718;
718.2000;0.6593;0.5869;
718.5000;0.6520;0.5718;
718.8000;0.6512;0.5643;
719.1000;0.6536;0.5693;
719.4000;0.6553;0.5819;
719.7000;0.6488;0.5693;
720.0000;0.6504;0.5668;
720.3000;0.6504;0.5718;
720.6000;0.6488;0.5693;
720.9000;0.6504;0.5693;
721.2000;0.6488;0.5668;
721.5000;0.6479;0.5617;
721.8000;0.6512;0.5668;
722.1000;0.6512;0.5794;
722.4000;0.6512;0.5668;
722.7000;0.6504;0.5643;
723.0000;0.6512;0.5643;
723.3000;0.6496;0.5643;
723.6000;0.6488;0.5567;
723.9000;0.6504;0.5491;
724.2000;0.6496;0.5466;
724.5000;0.6496;0.5517;
724.8000;0.6504;0.5567;
725.1000;0.6504;0.5567;
725.4000;0.6496;0.5517;
725.7000;0.6488;0.5542;
726.0000;0.6488;0.5491;
726.3000;0.6488;0.5441;
726.6000;0.6479;0.5466;
726.9000;0.6512;0.5617;
727.2000;0.6488;0.5617;
727.5000;0.6479;0.5617;
727.8000;0.6479;0.5668;
728.1000;0.6455;0.5617;
728.4000;0.6463;0.5693;
728.7000;0.6479;0.5819;
729.0000;0.6431;0.5668;
729.3000;0.6471;0.5743;
729.6000;0.6479;0.5743;
729.9000;0.6447;0.5617;
730.2000;0.6447;0.5718;
730.5000;0.6439;0.5693;
730.8000;0.6471;0.5693;
731.1000;0.6447;0.5693;
731.4000;0.6431;0.5592;
731.7000;0.6439;0.5668;
732.0000;0.6447;0.5693;
732.3000;0.6439;0.5643;
732.6000;0.6439;0.5617;
732.9000;0.6439;0.5617;
733.2000;0.6447;0.5617;
733.5000;0.6504;0.5794;
733.8000;0.6439;0.5718;
734.1000;0.6422;0.5668;
734.4000;0.6422;0.5693;
734.7000;0.6439;0.5743;
735.0000;0.6439;0.5718;
735.3000;0.6447;0.5592;
735.6000;0.6431;0.5491;
735.9000;0.6422;0.5517;
736.2000;0.6431;0.5517;
736.5000;0.6431;0.5567;
736.8000;0.6439;0.5617;
737.1000;0.6447;0.5668;
737.4000;0.6414;0.5693;
737.7000;0.6439;0.5769;
738.0000;0.6439;0.5668;
738.3000;0.6422;0.5643;
738.6000;0.6431;0.5718;
738.9000;0.6431;0.5668;
739.2000;0.6414;0.5643;
739.5000;0.6431;0.5693;
739.8000;0.6422;0.5718;
740.1000;0.6504;0.5970;
740.4000;0.6398;0.5693;
740.7000;0.6398;0.5668;
741.0000;0.6406;0.5693;
741.3000;0.6431;0.5743;
741.6000;0.6414;0.5769;
741.9000;0.6374;0.5567;
742.2000;0.6406;0.5693;
742.5000;0.6414;0.5718;
742.8000;0.6406;0.5617;
743.1000;0.6463;0.5643;
743.4000;0.6406;0.5517;
743.7000;0.6398;0.5567;
744.0000;0.6398;0.5668;
744.3000;0.6398;0.5693;
744.6000;0.6406;0.5743;
744.9000;0.6398;0.5794;
745.2000;0.6398;0.5794;
745.5000;0.6406;0.5769;
745.8000;0.6398;0.5794;
746.1000;0.6398;0.5643;
746.4000;0.6422;0.5643;
746.7000;0.6406;0.5643;
747.0000;0.6398;0.5617;
747.3000;0.6398;0.5668;
747.6000;0.6406;0.5718;
747.9000;0.6382;0.5617;
748.2000;0.6390;0.5567;
748.5000;0.6382;0.5517;
748.8000;0.6398;0.5567;
749.1000;0.6406;0.5567;
749.4000;0.6398;0.5592;
749.7000;0.6390;0.5617;
750.0000;0.6398;0.5592;
750.3000;0.6382;0.5542;
750.6000;0.6390;0.5466;
750.9000;0.6382;0.5491;
751.2000;0.6374;0.5517;
751.5000;0.6398;0.5592;
751.8000;0.6382;0.5517;
752.1000;0.6374;0.5466;
752.4000;0.6365;0.5441;
752.7000;0.6365;0.5517;
753.0000;0.6382;0.5567;
753.3000;0.6390;0.5592;
753.6000;0.6365;0.5542;
753.9000;0.6374;0.5491;
754.2000;0.6374;0.5391;
754.5000;0.6374;0.5391;
754.8000;0.6374;0.5340;
755.1000;0.6374;0.5416;
755.4000;0.6333;0.5315;
755.7000;0.6365;0.5441;
756.0000;0.6357;0.5441;
756.3000;0.6414;0.5592;
756.6000;0.6317;0.5391;
756.9000;0.6349;0.5491;
757.2000;0.6349;0.5466;
757.5000;0.6325;0.5466;
757.8000;0.6357;0.5517;
758.1000;0.6357;0.5542;
758.4000;0.6374;0.5517;
758.7000;0.6357;0.5491;
759.0000;0.6357;0.5466;
759.3000;0.6349;0.5517;
759.6000;0.6414;0.5668;
759.9000;0.6349;0.5466;
760.2000;0.6341;0.5466;
760.5000;0.6349;0.5542;
760.8000;0.6341;0.5617;
761.1000;0.6349;0.5592;
761.4000;0.6349;0.5668;
761.7000;0.6349;0.5743;
762.0000;0.6333;0.5769;
762.3000;0.6349;0.5869;
762.6000;0.6357;0.5844;
762.9000;0.6349;0.5794;
763.2000;0.6349;0.5718;
763.5000;0.6341;0.5592;
763.8000;0.6333;0.5542;
764.1000;0.6341;0.5517;
764.4000;0.6349;0.5517;
764.7000;0.6390;0.5592;
765.0000;0.6300;0.5441;
765.3000;0.6349;0.5491;
765.6000;0.6341;0.5441;
765.9000;0.6341;0.5491;
766.2000;0.6317;0.5517;
766.5000;0.6325;0.5491;
766.8000;0.6325;0.5441;
767.1000;0.6317;0.5466;
767.4000;0.6325;0.5441;
767.7000;0.6333;0.5517;
768.0000;0.6333;0.5517;
768.3000;0.6333;0.5517;
768.6000;0.6317;0.5491;
768.9000;0.6317;0.5441;
769.2000;0.6317;0.5567;
769.5000;0.6325;0.5643;
769.8000;0.6292;0.5567;
770.1000;0.6325;0.5517;
770.4000;0.6325;0.5592;
770.7000;0.6325;0.5542;
771.0000;0.6300;0.5542;
771.3000;0.6300;0.5517;
771.6000;0.6317;0.5517;
771.9000;0.6317;0.5517;
772.2000;0.6300;0.5491;
772.5000;0.6300;0.5491;
772.8000;0.6325;0.5592;
773.1000;0.6325;0.5567;
773.4000;0.6284;0.5441;
773.7000;0.6292;0.5491;
774.0000;0.6309;0.5466;
774.3000;0.6252;0.5315;
774.6000;0.6300;0.5391;
774.9000;0.6309;0.5441;
775.2000;0.6317;0.5391;
775.5000;0.6284;0.5315;
775.8000;0.6309;0.5391;
776.1000;0.6292;0.5416;
776.4000;0.6292;0.5391;
776.7000;0.6309;0.5517;
777.0000;0.6300;0.5491;
777.3000;0.6276;0.5517;
777.6000;0.6284;0.5643;
777.9000;0.6309;0.5643;
778.2000;0.6317;0.5718;
778.5000;0.6300;0.5718;
778.8000;0.6292;0.5743;
779.1000;0.6292;0.5718;
779.4000;0.6300;0.5819;
779.7000;0.6268;0.5718;
780.0000;0.6276;0.5794;
780.3000;0.6268;0.5769;
780.6000;0.6300;0.5769;
780.9000;0.6276;0.5743;
781.2000;0.6268;0.5718;
781.5000;0.6260;0.5643;
781.8000;0.6276;0.5693;
782.1000;0.6276;0.5743;
782.4000;0.6260;0.5617;
782.7000;0.6268;0.5643;
783.0000;0.6268;0.5592;
783.3000;0.6276;0.5668;
783.6000;0.6276;0.5718;
783.9000;0.6268;0.5718;
784.2000;0.6300;0.5718;
784.5000;0.6309;0.5743;
784.8000;0.6276;0.5643;
785.1000;0.6292;0.5617;
785.4000;0.6268;0.5567;
785.7000;0.6268;0.5592;
786.0000;0.6276;0.5617;
786.3000;0.6252;0.5668;
786.6000;0.6268;0.5617;
786.9000;0.6268;0.5517;
787.2000;0.6268;0.5567;
787.5000;0.6268;0.5466;
787.8000;0.6260;0.5491;
788.1000;0.6260;0.5617;
788.4000;0.6219;0.5416;
788.7000;0.6292;0.5668;
789.0000;0.6284;0.5769;
789.3000;0.6260;0.5743;
789.6000;0.6268;0.5794;
789.9000;0.6260;0.5819;
790.2000;0.6260;0.5869;
790.5000;0.6260;0.5869;
790.8000;0.6268;0.5819;
791.1000;0.6292;0.5769;
791.4000;0.6260;0.5693;
791.7000;0.6268;0.5693;
792.0000;0.6252;0.5617;
792.3000;0.6268;0.5617;
792.6000;0.6252;0.5617;
792.9000;0.6252;0.5668;
793.2000;0.6243;0.5718;
793.5000;0.6268;0.5743;
793.8000;0.6276;0.5718;
794.1000;0.6252;0.5693;
794.4000;0.6260;0.5718;
794.7000;0.6276;0.5819;
795.0000;0.6260;0.5819;
795.3000;0.6252;0.5718;
795.6000;0.6260;0.5617;
795.9000;0.6260;0.5617;
796.2000;0.6284;0.5643;
796.5000;0.6243;0.5643;
796.8000;0.6243;0.5693;
797.1000;0.6284;0.5819;
797.4000;0.6268;0.5718;
797.7000;0.6243;0.5617;
798.0000;0.6243;0.5567;
798.3000;0.6252;0.5592;
798.6000;0.6252;0.5592;
798.9000;0.6252;0.5617;
799.2000;0.6243;0.5592;
799.5000;0.6235;0.5617;
799.8000;0.6260;0.5617;
800.1000;0.6203;0.5491;
800.4000;0.6211;0.5441;
800.7000;0.6243;0.5567;
801.0000;0.6252;0.5517;
801.3000;0.6325;0.5693;
801.6000;0.6227;0.5466;
801.9000;0.6268;0.5542;
802.2000;0.6227;0.5542;
802.5000;0.6252;0.5617;
802.8000;0.6227;0.5592;
803.1000;0.6211;0.5441;
803.4000;0.6243;0.5466;
803.7000;0.6243;0.5466;
804.0000;0.6227;0.5517;
804.3000;0.6243;0.5617;
804.6000;0.6235;0.5517;
804.9000;0.6235;0.5517;
805.2000;0.6219;0.5617;
805.5000;0.6235;0.5567;
805.8000;0.6227;0.5567;
806.1000;0.6219;0.5592;
806.4000;0.6292;0.5844;
806.7000;0.6227;0.5617;
807.0000;0.6211;0.5567;
807.3000;0.6219;0.5542;
807.6000;0.6211;0.5517;
807.9000;0.6211;0.5542;
808.2000;0.6195;0.5517;
808.5000;0.6186;0.5391;
808.8000;0.6227;0.5567;
809.1000;0.6227;0.5567;
809.4000;0.6211;0.5491;
809.7000;0.6219;0.5517;
810.0000;0.6227;0.5643;
810.3000;0.6219;0.5592;
810.6000;0.6235;0.5643;
810.9000;0.6211;0.5542;
811.2000;0.6235;0.5693;
811.5000;0.6211;0.5643;
811.8000;0.6195;0.5617;
812.1000;0.6211;0.5693;
812.4000;0.6170;0.5617;
812.7000;0.6195;0.5769;
813.0000;0.6211;0.5718;
813.3000;0.6170;0.5668;
813.6000;0.6219;0.5769;
813.9000;0.6170;0.5668;
814.2000;0.6268;0.5794;
814.5000;0.6186;0.5567;
814.8000;0.6203;0.5491;
815.1000;0.6203;0.5517;
815.4000;0.6195;0.5517;
815.7000;0.6195;0.5491;
816.0000;0.6211;0.5592;
816.3000;0.6203;0.5542;
816.6000;0.6195;0.5517;
816.9000;0.6186;0.5542;
817.2000;0.6203;0.5617;
817.5000;0.6219;0.5718;
817.8000;0.6129;0.5517;
818.1000;0.6186;0.5643;
818.4000;0.6211;0.5617;
818.7000;0.6178;0.5592;
819.0000;0.6186;0.5693;
819.3000;0.6235;0.5869;
819.6000;0.6186;0.5718;
819.9000;0.6178;0.5617;
820.2000;0.6203;0.5643;
820.5000;0.6211;0.5668;
820.8000;0.6195;0.5617;
821.1000;0.6195;0.5643;
821.4000;0.6203;0.5718;
821.7000;0.6186;0.5693;
822.0000;0.6195;0.5643;
822.3000;0.6186;0.5617;
822.6000;0.6284;0.5844;
822.9000;0.6211;0.5718;
823.2000;0.6186;0.5693;
823.5000;0.6186;0.5643;
823.8000;0.6219;0.5718;
824.1000;0.6178;0.5592;
824.4000;0.6195;0.5617;
824.7000;0.6186;0.5668;
825.0000;0.6162;0.5668;
825.3000;0.6178;0.5718;
825.6000;0.6162;0.5693;
825.9000;0.6170;0.5743;
826.2000;0.6178;0.5668;
826.5000;0.6178;0.5693;
826.8000;0.6219;0.5794;
827.1000;0.6178;0.5668;
827.4000;0.6162;0.5718;
827.7000;0.6178;0.5743;
828.0000;0.6162;0.5668;
828.3000;0.6186;0.5643;
828.6000;0.6186;0.5617;
828.9000;0.6178;0.5769;
829.2000;0.6162;0.5718;
829.5000;0.6178;0.5718;
829.8000;0.6178;0.5769;
830.1000;0.6170;0.5668;
830.4000;0.6178;0.5769;
830.7000;0.6186;0.5794;
831.0000;0.6129;0.5617;
831.3000;0.6186;0.5743;
831.6000;0.6186;0.5844;
831.9000;0.6170;0.5743;
832.2000;0.6162;0.5643;
832.5000;0.6178;0.5668;
832.8000;0.6170;0.5617;
833.1000;0.6170;0.5592;
833.4000;0.6162;0.5643;
833.7000;0.6162;0.5643;
834.0000;0.6162;0.5643;
834.3000;0.6162;0.5693;
834.6000;0.6203;0.5819;
834.9000;0.6146;0.5592;
835.2000;0.6170;0.5592;
835.5000;0.6154;0.5592;
835.8000;0.6154;0.5617;
836.1000;0.6178;0.5743;
836.4000;0.6162;0.5718;
836.7000;0.6154;0.5617;
837.0000;0.6154;0.5643;
837.3000;0.6146;0.5567;
837.6000;0.6162;0.5542;
837.9000;0.6162;0.5517;
838.2000;0.6154;0.5542;
838.5000;0.6146;0.5668;
838.8000;0.6162;0.5718;
839.1000;0.6170;0.5668;
839.4000;0.6129;0.5668;
839.7000;0.6162;0.5769;
840.0000;0.6162;0.5743;
840.3000;0.6162;0.5718;
840.6000;0.6138;0.5643;
840.9000;0.6186;0.5718;
841.2000;0.6154;0.5542;
841.5000;0.6154;0.5542;
841.8000;0.6170;0.5567;
842.1000;0.6170;0.5617;
842.4000;0.6162;0.5592;
842.7000;0.6146;0.5567;
843.0000;0.6162;0.5617;
843.3000;0.6129;0.5542;
843.6000;0.6162;0.5643;
843.9000;0.6186;0.5718;
844.2000;0.6162;0.5743;
844.5000;0.6170;0.5718;
844.8000;0.6162;0.5718;
845.1000;0.6113;0.5643;
845.4000;0.6154;0.5844;
845.7000;0.6170;0.5894;
846.0000;0.6162;0.5819;
846.3000;0.6146;0.5743;
846.6000;0.6146;0.5819;
846.9000;0.6097;0.5718;
847.2000;0.6146;0.5743;
847.5000;0.6146;0.5794;
847.8000;0.6162;0.5769;
848.1000;0.6154;0.5769;
848.4000;0.6129;0.5668;
848.7000;0.6203;0.5894;
849.0000;0.6105;0.5517;
849.3000;0.6154;0.5643;
849.6000;0.6154;0.5769;
849.9000;0.6186;0.5743;
850.2000;0.6162;0.5567;
850.5000;0.6113;0.5441;
850.8000;0.6162;0.5567;
851.1000;0.6146;0.5491;
851.4000;0.6170;0.5617;
851.7000;0.6146;0.5592;
852.0000;0.6146;0.5769;
852.3000;0.6154;0.5819;
852.6000;0.6138;0.5769;
852.9000;0.6138;0.5743;
853.2000;0.6138;0.5769;
853.5000;0.6146;0.5869;
853.8000;0.6146;0.5844;
854.1000;0.6138;0.5869;
854.4000;0.6146;0.5844;
854.7000;0.6129;0.5869;
855.0000;0.6146;0.5869;
855.3000;0.6154;0.5894;
855.6000;0.6178;0.5920;
855.9000;0.6138;0.5945;
856.2000;0.6146;0.5945;
856.5000;0.6138;0.5945;
856.8000;0.6162;0.5970;
857.1000;0.6105;0.5869;
857.4000;0.6146;0.5869;
857.7000;0.6129;0.5920;
858.0000;0.6121;0.5920;
858.3000;0.6105;0.5920;
858.6000;0.6146;0.5945;
858.9000;0.6121;0.5945;
859.2000;0.6121;0.5894;
859.5000;0.6138;0.5920;
859.8000;0.6129;0.5794;
860.1000;0.6129;0.5643;
860.4000;0.6146;0.5643;
860.7000;0.6121;0.5567;
861.0000;0.6129;0.5617;
861.3000;0.6138;0.5668;
861.6000;0.6129;0.5617;
861.9000;0.6129;0.5592;
862.2000;0.6121;0.5592;
862.5000;0.6138;0.5718;
862.8000;0.6129;0.5668;
863.1000;0.6113;0.5718;
863.4000;0.6129;0.5769;
863.7000;0.6105;0.5668;
864.0000;0.6129;0.5668;
864.3000;0.6121;0.5693;
864.6000;0.6162;0.5844;
864.9000;0.6146;0.5869;
865.2000;0.6121;0.5945;
865.5000;0.6129;0.5920;
865.8000;0.6064;0.5693;
866.1000;0.6129;0.5819;
866.4000;0.6170;0.5869;
866.7000;0.6129;0.5769;
867.0000;0.6129;0.5769;
867.3000;0.6129;0.5769;
867.6000;0.6129;0.5718;
867.9000;0.6097;0.5668;
868.2000;0.6146;0.5769;
868.5000;0.6121;0.5743;
868.8000;0.6138;0.5743;
869.1000;0.6129;0.5643;
869.4000;0.6138;0.5643;
869.7000;0.6121;0.5542;
870.0000;0.6154;0.5643;
870.3000;0.6129;0.5617;
870.6000;0.6113;0.5567;
870.9000;0.6097;0.5592;
871.2000;0.6121;0.5668;
871.5000;0.6113;0.5668;
871.8000;0.6121;0.5693;
872.1000;0.6113;0.5643;
872.4000;0.6138;0.5668;
872.7000;0.6097;0.5542;
873.0000;0.6129;0.5592;
873.3000;0.6056;0.5315;
873.6000;0.6105;0.5491;
873.9000;0.6105;0.5491;
874.2000;0.6105;0.5542;
874.5000;0.6081;0.5441;
874.8000;0.6113;0.5517;
875.1000;0.6113;0.5517;
875.4000;0.6105;0.5643;
875.7000;0.6121;0.5794;
876.0000;0.6121;0.5819;
876.3000;0.6129;0.5894;
876.6000;0.6105;0.5819;
876.9000;0.6113;0.5869;
877.2000;0.6113;0.5844;
877.5000;0.6121;0.5945;
877.8000;0.6129;0.5920;
878.1000;0.6121;0.5869;
878.4000;0.6105;0.5769;
878.7000;0.6121;0.5794;
879.0000;0.6129;0.5794;
879.3000;0.6097;0.5668;
879.6000;0.6089;0.5743;
879.9000;0.6121;0.5869;
880.2000;0.6121;0.5920;
880.5000;0.6113;0.5995;
880.8000;0.6105;0.6071;
881.1000;0.6105;0.6020;
881.4000;0.6097;0.5844;
881.7000;0.6138;0.5894;
882.0000;0.6121;0.5794;
882.3000;0.6113;0.5743;
882.6000;0.6121;0.5869;
882.9000;0.6105;0.5794;
883.2000;0.6097;0.5769;
883.5000;0.6113;0.5743;
883.8000;0.6105;0.5769;
884.1000;0.6113;0.5769;
884.4000;0.6081;0.5769;
884.7000;0.6072;0.5794;
885.0000;0.6089;0.5844;
885.3000;0.6081;0.5844;
885.6000;0.6064;0.5844;
885.9000;0.6105;0.5819;
886.2000;0.6105;0.5743;
886.5000;0.6105;0.5668;
886.8000;0.6113;0.5693;
887.1000;0.6097;0.5693;
887.4000;0.6105;0.5693;
887.7000;0.6113;0.5844;
888.0000;0.6105;0.5894;
888.3000;0.6105;0.5894;
888.6000;0.6089;0.5844;
888.9000;0.6072;0.5819;
889.2000;0.6105;0.5869;
889.5000;0.6129;0.5995;
889.8000;0.6097;0.5920;
890.1000;0.6081;0.5945;
890.4000;0.6105;0.5970;
890.7000;0.6089;0.6046;
891.0000;0.6072;0.5945;
891.3000;0.6113;0.5920;
891.6000;0.6105;0.5920;
891.9000;0.6129;0.5894;
892.2000;0.6072;0.5769;
892.5000;0.6097;0.5794;
892.8000;0.6056;0.5769;
893.1000;0.6089;0.5794;
893.4000;0.6081;0.5718;
893.7000;0.6097;0.5844;
894.0000;0.6097;0.5844;
894.3000;0.6056;0.5844;
894.6000;0.6138;0.6020;
894.9000;0.6081;0.5945;
895.2000;0.6072;0.5995;
895.5000;0.6081;0.5995;
895.8000;0.6105;0.5970;
896.1000;0.6089;0.5945;
896.4000;0.6056;0.5894;
896.7000;0.6097;0.5920;
897.0000;0.6081;0.5920;
897.3000;0.6138;0.6121;
897.6000;0.6089;0.5970;
897.9000;0.6113;0.6146;
898.2000;0.6097;0.6096;
898.5000;0.6097;0.6146;
898.8000;0.6081;0.6121;
899.1000;0.6056;0.6096;
899.4000;0.6121;0.6172;
899.7000;0.6064;0.6146;
900.0000;0.6072;0.6146;
900.3000;0.6089;0.6197;
900.6000;0.6072;0.6297;
900.9000;0.6081;0.6297;
901.2000;0.6089;0.6272;
901.5000;0.6081;0.6197;
901.8000;0.6072;0.6297;
902.1000;0.6072;0.6247;
902.4000;0.6089;0.6297;
902.7000;0.6089;0.6247;
903.0000;0.6089;0.6222;
903.3000;0.6048;0.6121;
903.6000;0.6072;0.6121;
903.9000;0.6089;0.6071;
904.2000;0.6064;0.6046;
904.5000;0.6015;0.5995;
904.8000;0.6064;0.6071;
905.1000;0.6097;0.6071;
905.4000;0.6081;0.6046;
905.7000;0.6081;0.5945;
906.0000;0.6089;0.6020;
906.3000;0.6129;0.6222;
906.6000;0.6097;0.6121;
906.9000;0.6113;0.6197;
907.2000;0.6064;0.6121;
907.5000;0.6089;0.6121;
907.8000;0.6081;0.6222;
908.1000;0.6081;0.6247;
908.4000;0.6081;0.6373;
908.7000;0.6056;0.6348;
909.0000;0.6064;0.6373;
909.3000;0.6072;0.6323;
909.6000;0.6072;0.6247;
909.9000;0.6089;0.6297;
910.2000;0.6064;0.6272;
910.5000;0.6072;0.6247;
910.8000;0.6040;0.6096;
911.1000;0.6089;0.6197;
911.4000;0.6097;0.6172;
911.7000;0.6072;0.6121;
912.0000;0.6089;0.6121;
912.3000;0.6089;0.6071;
912.6000;0.6064;0.6096;
912.9000;0.6048;0.6071;
913.2000;0.6072;0.6096;
913.5000;0.6081;0.6096;
913.8000;0.6081;0.6146;
914.1000;0.6056;0.6071;
914.4000;0.6056;0.6096;
914.7000;0.6072;0.6121;
915.0000;0.6072;0.5995;
915.3000;0.6072;0.5970;
915.6000;0.6072;0.5945;
915.9000;0.6024;0.5844;
916.2000;0.6081;0.6046;
916.5000;0.6064;0.6121;
916.8000;0.6056;0.6121;
917.1000;0.6072;0.6146;
917.4000;0.6081;0.6197;
917.7000;0.6089;0.6272;
918.0000;0.6056;0.6146;
918.3000;0.6072;0.6096;
918.6000;0.6097;0.6071;
918.9000;0.6064;0.6020;
919.2000;0.6056;0.6020;
919.5000;0.6024;0.5819;
919.8000;0.6064;0.5995;
920.1000;0.6056;0.6020;
920.4000;0.6040;0.5995;
920.7000;0.6048;0.5995;
921.0000;0.6056;0.5970;
921.3000;0.6072;0.5920;
921.6000;0.6064;0.5945;
921.9000;0.6064;0.5920;
922.2000;0.6081;0.5970;
922.5000;0.6048;0.5995;
922.8000;0.6056;0.6071;
923.1000;0.6064;0.6046;
923.4000;0.6064;0.6046;
923.7000;0.5983;0.5794;
924.0000;0.6064;0.5995;
924.3000;0.6064;0.5970;
924.6000;0.6056;0.5945;
924.9000;0.6064;0.6046;
925.2000;0.6064;0.6071;
925.5000;0.6040;0.6146;
925.8000;0.6056;0.6222;
926.1000;0.6056;0.6222;
926.4000;0.6064;0.6323;
926.7000;0.6064;0.6272;
927.0000;0.6072;0.6222;
927.3000;0.6056;0.6172;
927.6000;0.6064;0.6146;
927.9000;0.6064;0.6146;
928.2000;0.6056;0.6146;
928.5000;0.6032;0.6172;
928.8000;0.6064;0.6197;
929.1000;0.6072;0.6197;
929.4000;0.6048;0.6121;
929.7000;0.6048;0.6096;
930.0000;0.6048;0.6146;
930.3000;0.6072;0.6272;
930.6000;0.6048;0.6146;
930.9000;0.6048;0.6172;
931.2000;0.6048;0.6197;
931.5000;0.6064;0.6197;
931.8000;0.6064;0.6222;
932.1000;0.6064;0.6197;
932.4000;0.6064;0.6197;
932.7000;0.6048;0.6096;
933.0000;0.6032;0.6020;
933.3000;0.6040;0.6020;
933.6000;0.6056;0.6096;
933.9000;0.6072;0.6121;
934.2000;0.6056;0.6020;
934.5000;0.6056;0.5894;
934.8000;0.6032;0.5794;
935.1000;0.6048;0.5844;
935.4000;0.6032;0.5894;
935.7000;0.6056;0.5945;
936.0000;0.6015;0.5894;
936.3000;0.6040;0.6071;
936.6000;0.6056;0.6096;
936.9000;0.6072;0.6297;
937.2000;0.6056;0.6297;
937.5000;0.6040;0.6172;
937.8000;0.6032;0.6096;
938.1000;0.6015;0.6071;
938.4000;0.6040;0.6197;
938.7000;0.6048;0.6046;
939.0000;0.6048;0.6121;
939.3000;0.6040;0.6146;
939.6000;0.6056;0.6222;
939.9000;0.6121;0.6373;
940.2000;0.6007;0.5970;
940.5000;0.6048;0.6071;
940.8000;0.6072;0.6146;
941.1000;0.6040;0.6121;
941.4000;0.6048;0.6096;
941.7000;0.6032;0.6096;
942.0000;0.6081;0.6146;
942.3000;0.6040;0.5970;
942.6000;0.6048;0.5894;
942.9000;0.6040;0.5869;
943.2000;0.6056;0.5920;
943.5000;0.6048;0.5844;
943.8000;0.6040;0.5844;
944.1000;0.6048;0.5920;
944.4000;0.6007;0.5894;
944.7000;0.6032;0.5945;
945.0000;0.6040;0.5995;
945.3000;0.6040;0.6121;
945.6000;0.6056;0.6222;
945.9000;0.6007;0.6121;
946.2000;0.6040;0.6121;
946.5000;0.6040;0.6121;
946.8000;0.6056;0.6096;
947.1000;0.6048;0.6096;
947.4000;0.6040;0.5995;
947.7000;0.6040;0.5970;
948.0000;0.6048;0.6020;
948.3000;0.6081;0.6172;
948.6000;0.6048;0.6222;
948.9000;0.6064;0.6247;
949.2000;0.6040;0.6172;
949.5000;0.6056;0.6197;
949.8000;0.6024;0.6121;
950.1000;0.6081;0.6247;
950.4000;0.6048;0.6222;
950.7000;0.6040;0.6172;
951.0000;0.6032;0.6247;
951.3000;0.6121;0.6449;
951.6000;0.6048;0.6222;
951.9000;0.6032;0.6247;
952.2000;0.6040;0.6222;
952.5000;0.6048;0.6297;
952.8000;0.6040;0.6323;
953.1000;0.6048;0.6247;
953.4000;0.6032;0.6272;
953.7000;0.6015;0.6247;
954.0000;0.6032;0.6247;
954.3000;0.6032;0.6146;
954.6000;0.6032;0.6146;
954.9000;0.6024;0.6172;
955.2000;0.6032;0.6197;
955.5000;0.6007;0.6046;
955.8000;0.6040;0.6071;
956.1000;0.6032;0.6071;
956.4000;0.6024;0.5970;
956.7000;0.6081;0.6046;
957.0000;0.6024;0.5844;
957.3000;0.6032;0.5869;
957.6000;0.6024;0.5844;
957.9000;0.6040;0.5794;
958.2000;0.6040;0.5769;
958.5000;0.6040;0.5819;
958.8000;0.6032;0.5894;
959.1000;0.6056;0.5920;
959.4000;0.6040;0.5869;
959.7000;0.6024;0.5794;
960.0000;0.6040;0.5844;
960.3000;0.6040;0.5794;
960.6000;0.6040;0.5668;
960.9000;0.6040;0.5769;
961.2000;0.6015;0.5743;
961.5000;0.6024;0.5743;
961.8000;0.6024;0.5693;
962.1000;0.6024;0.5693;
962.4000;0.6040;0.5794;
962.7000;0.6032;0.5743;
963.0000;0.6015;0.5769;
963.3000;0.6024;0.5819;
963.6000;0.6040;0.5869;
963.9000;0.6015;0.5945;
964.2000;0.6032;0.5995;
964.5000;0.6040;0.5945;
964.8000;0.6072;0.6121;
965.1000;0.6015;0.5995;
965.4000;0.6032;0.6020;
965.7000;0.6032;0.6020;
966.0000;0.6032;0.5970;
966.3000;0.6032;0.5920;
966.6000;0.6024;0.5920;
966.9000;0.6024;0.5970;
967.2000;0.6032;0.6020;
967.5000;0.6032;0.6046;
967.8000;0.5942;0.5743;
968.1000;0.6040;0.6046;
968.4000;0.6032;0.6096;
968.7000;0.6040;0.6071;
969.0000;0.6056;0.6046;
969.3000;0.6040;0.6020;
969.6000;0.6040;0.5995;
969.9000;0.6032;0.6046;
970.2000;0.6024;0.6071;
970.5000;0.6015;0.5945;
970.8000;0.6040;0.5894;
971.1000;0.6024;0.5920;
971.4000;0.6007;0.5869;
971.7000;0.6007;0.5894;
972.0000;0.6040;0.5945;
972.3000;0.6024;0.5869;
972.6000;0.6024;0.5844;
972.9000;0.6032;0.5894;
973.2000;0.6032;0.5819;
973.5000;0.6040;0.5718;
973.8000;0.6040;0.5718;
974.1000;0.5975;0.5567;
974.4000;0.6032;0.5718;
974.7000;0.6048;0.5743;
975.0000;0.6032;0.5743;
975.3000;0.5999;0.5794;
975.6000;0.6007;0.5894;
975.9000;0.6024;0.5894;
976.2000;0.5999;0.5794;
976.5000;0.5999;0.5794;
976.8000;0.5999;0.5794;
977.1000;0.5942;0.5617;
977.4000;0.6007;0.5819;
977.7000;0.5999;0.5844;
978.0000;0.6015;0.5844;
978.3000;0.6040;0.5894;
978.6000;0.6040;0.5844;
978.9000;0.6048;0.5794;
979.2000;0.6015;0.5693;
979.5000;0.6032;0.5743;
979.8000;0.6081;0.5945;
980.1000;0.6015;0.5894;
980.4000;0.6040;0.5945;
980.7000;0.6024;0.5920;
981.0000;0.6015;0.5894;
981.3000;0.6032;0.5970;
981.6000;0.5975;0.5794;
981.9000;0.6015;0.5844;
982.2000;0.6024;0.5945;
982.5000;0.6007;0.6020;
982.8000;0.6015;0.5970;
983.1000;0.6024;0.6046;
983.4000;0.6015;0.6121;
983.7000;0.6048;0.6247;
984.0000;0.6024;0.6222;
984.3000;0.5975;0.6071;
984.6000;0.6015;0.6071;
984.9000;0.6015;0.6121;
985.2000;0.6040;0.6121;
985.5000;0.6024;0.6121;
985.8000;0.6007;0.6121;
986.1000;0.6015;0.6146;
986.4000;0.6015;0.6071;
986.7000;0.5999;0.5970;
987.0000;0.6024;0.5995;
987.3000;0.6015;0.5970;
987.6000;0.6015;0.5920;
987.9000;0.5999;0.5894;
988.2000;0.6032;0.5894;
988.5000;0.6015;0.5769;
988.8000;0.6032;0.5869;
989.1000;0.6015;0.5844;
989.4000;0.6015;0.5844;
989.7000;0.6024;0.5844;
990.0000;0.5991;0.5769;
990.3000;0.6007;0.5894;
990.6000;0.6015;0.5995;
990.9000;0.5991;0.5920;
991.2000;0.5999;0.6071;
991.5000;0.6007;0.6046;
991.8000;0.5991;0.5970;
992.1000;0.6007;0.6046;
992.4000;0.6007;0.6046;
992.7000;0.6007;0.5970;
993.0000;0.6007;0.5920;
993.3000;0.6007;0.5894;
993.6000;0.6015;0.5970;
993.9000;0.6015;0.5970;
994.2000;0.5999;0.5945;
994.5000;0.6040;0.5995;
994.8000;0.6032;0.5970;
995.1000;0.6024;0.5894;
995.4000;0.6007;0.5894;
995.7000;0.6015;0.5945;
996.0000;0.6015;0.5995;
996.3000;0.6007;0.6046;
996.6000;0.5999;0.6096;
996.9000;0.5991;0.6121;
997.2000;0.6007;0.6146;
997.5000;0.5999;0.6121;
997.8000;0.6007;0.6146;
998.1000;0.6007;0.6046;
998.4000;0.6007;0.6020;
998.7000;0.6024;0.6071;
999.0000;0.6007;0.6121;
999.3000;0.5934;0.5920;
999.6000;0.6007;0.6071;
999.9000;0.6015;0.6020;
1000.2000;0.6040;0.6071;
1000.5000;0.5983;0.5920;
1000.8000;0.6007;0.5970;
1001.1000;0.5991;0.5894;
1001.4000;0.5999;0.5894;
1001.7000;0.5975;0.5894;
1002.0000;0.6015;0.5970;
1002.3000;0.5999;0.5945;
1002.6000;0.6015;0.5995;
1002.9000;0.5999;0.5945;
1003.2000;0.5999;0.5970;
1003.5000;0.5999;0.5945;
1003.8000;0.6007;0.6020;
1004.1000;0.6007;0.6020;
1004.4000;0.6015;0.6121;
1004.7000;0.6007;0.6096;
1005.0000;0.5999;0.6146;
1005.3000;0.5991;0.6096;
1005.6000;0.5999;0.6121;
1005.9000;0.5999;0.6146;
1006.2000;0.6032;0.6172;
1006.5000;0.5999;0.6146;
1006.8000;0.5950;0.5945;
1007.1000;0.6007;0.6071;
1007.4000;0.6015;0.6071;
1007.7000;0.6064;0.6247;
1008.0000;0.6007;0.6172;
1008.3000;0.6024;0.6222;
1008.6000;0.6015;0.6146;
1008.9000;0.5991;0.6096;
1009.2000;0.6007;0.6146;
1009.5000;0.6015;0.6172;
1009.8000;0.5991;0.6071;
1010.1000;0.5991;0.6071;
1010.4000;0.6007;0.6071;
1010.7000;0.5999;0.6020;
1011.0000;0.6007;0.6146;
1011.3000;0.5983;0.6146;
1011.6000;0.5999;0.6121;
1011.9000;0.5999;0.6096;
1012.2000;0.5983;0.5995;
1012.5000;0.6024;0.6096;
1012.8000;0.5991;0.6071;
1013.1000;0.5991;0.6096;
1013.4000;0.5991;0.6046;
1013.7000;0.5991;0.6071;
1014.0000;0.5999;0.6020;
1014.3000;0.5991;0.6020;
1014.6000;0.5999;0.5995;
1014.9000;0.5975;0.5970;
1015.2000;0.5991;0.6020;
1015.5000;0.5991;0.6096;
1015.8000;0.6015;0.6222;
1016.1000;0.5991;0.6071;
1016.4000;0.5975;0.6096;
1016.7000;0.6015;0.6247;
1017.0000;0.5975;0.6096;
1017.3000;0.5999;0.6071;
1017.6000;0.5983;0.6020;
1017.9000;0.5999;0.5970;
1018.2000;0.5991;0.5920;
1018.5000;0.6007;0.6020;
1018.8000;0.5983;0.6020;
1019.1000;0.5999;0.6071;
1019.4000;0.6007;0.6121;
1019.7000;0.5999;0.6121;
1020.0000;0.6007;0.6121;
1020.3000;0.6007;0.6146;
1020.6000;0.6007;0.6146;
1020.9000;0.5991;0.6071;
1021.2000;0.5983;0.6020;
1021.5000;0.5991;0.5945;
1021.8000;0.5983;0.5970;
1022.1000;0.5991;0.5894;
1022.4000;0.5991;0.5894;
1022.7000;0.5975;0.5819;
1023.0000;0.5991;0.5769;
1023.3000;0.5999;0.5819;
1023.6000;0.5983;0.5819;
1023.9000;0.5999;0.5844;
1024.2000;0.6015;0.5920;
1024.5000;0.6007;0.5945;
1024.8000;0.6024;0.5970;
1025.1000;0.6007;0.6071;
1025.4000;0.5999;0.6096;
1025.7000;0.6015;0.6071;
1026.0000;0.6032;0.6020;
1026.3000;0.5991;0.5945;
1026.6000;0.6007;0.5995;
1026.9000;0.5983;0.5995;
1027.2000;0.5991;0.5970;
1027.5000;0.5967;0.5970;
1027.8000;0.6007;0.6121;
1028.1000;0.5999;0.6172;
1028.4000;0.6007;0.6297;
1028.7000;0.5983;0.6222;
1029.0000;0.5991;0.6172;
1029.3000;0.6024;0.6247;
1029.6000;0.5991;0.6146;
1029.9000;0.5991;0.6121;
1030.2000;0.5983;0.6096;
1030.5000;0.5991;0.6096;
1030.8000;0.5999;0.6172;
1031.1000;0.5983;0.6197;
1031.4000;0.5942;0.5945;
1031.7000;0.5983;0.6046;
1032.0000;0.6024;0.6222;
1032.3000;0.5958;0.5970;
1032.6000;0.5991;0.5995;
1032.9000;0.5991;0.5945;
1033.2000;0.5999;0.5844;
1033.5000;0.5991;0.5844;
1033.8000;0.5983;0.5819;
1034.1000;0.5999;0.5819;
1034.4000;0.5967;0.5769;
1034.7000;0.5999;0.5844;
1035.0000;0.5991;0.5844;
1035.3000;0.5958;0.5819;
1035.6000;0.5975;0.5970;
1035.9000;0.5983;0.5920;
1036.2000;0.5983;0.5970;
1036.5000;0.5983;0.6020;
1036.8000;0.5991;0.6046;
1037.1000;0.5967;0.5920;
1037.4000;0.5983;0.5894;
1037.7000;0.5967;0.5995;
1038.0000;0.5967;0.5970;
1038.3000;0.5991;0.5970;
1038.6000;0.5975;0.5894;
1038.9000;0.5975;0.5844;
1039.2000;0.5958;0.5819;
1039.5000;0.5983;0.5844;
1039.8000;0.5983;0.5945;
1040.1000;0.5983;0.5920;
1040.4000;0.5910;0.5693;
1040.7000;0.5975;0.5970;
1041.0000;0.5983;0.6046;
1041.3000;0.5975;0.6020;
1041.6000;0.6007;0.6046;
1041.9000;0.5983;0.5945;
1042.2000;0.5983;0.5920;
1042.5000;0.5991;0.5869;
1042.8000;0.5967;0.5844;
1043.1000;0.5991;0.5920;
1043.4000;0.5991;0.5970;
1043.7000;0.5999;0.6046;
1044.0000;0.5983;0.6046;
1044.3000;0.5991;0.6046;
1044.6000;0.5991;0.6172;
1044.9000;0.5991;0.6197;
1045.2000;0.5975;0.6146;
1045.5000;0.5983;0.6121;
1045.8000;0.5926;0.6046;
1046.1000;0.5967;0.6146;
1046.4000;0.5983;0.6247;
1046.7000;0.5983;0.6247;
1047.0000;0.5983;0.6297;
1047.3000;0.5942;0.6172;
1047.6000;0.5967;0.6222;
1047.9000;0.5967;0.6297;
1048.2000;0.5983;0.6348;
1048.5000;0.5983;0.6348;
1048.8000;0.5950;0.6348;
1049.1000;0.5958;0.6323;
1049.4000;0.5967;0.6348;
1049.7000;0.5975;0.6247;
1050.0000;0.5991;0.6297;
1050.3000;0.5999;0.6272;
1050.6000;0.5975;0.6146;
1050.9000;0.5983;0.6146;
1051.2000;0.5975;0.6121;
1051.5000;0.5991;0.6096;
1051.8000;0.5991;0.6121;
1052.1000;0.6015;0.6197;
1052.4000;0.6024;0.6222;
1052.7000;0.5958;0.6146;
1053.0000;0.5967;0.6096;
1053.3000;0.5967;0.6146;
1053.6000;0.6007;0.6247;
1053.9000;0.5991;0.6121;
1054.2000;0.5975;0.6096;
1054.5000;0.5967;0.6096;
1054.8000;0.5958;0.6071;
1055.1000;0.5991;0.6096;
1055.4000;0.5958;0.6020;
1055.7000;0.5975;0.6020;
1056.0000;0.5958;0.5970;
1056.3000;0.5967;0.6020;
1056.6000;0.5975;0.5995;
1056.9000;0.5991;0.5945;
1057.2000;0.5983;0.5920;
1057.5000;0.5975;0.5970;
1057.8000;0.5991;0.5945;
1058.1000;0.5983;0.5945;
1058.4000;0.5934;0.5844;
1058.7000;0.5975;0.5970;
1059.0000;0.5958;0.5894;
1059.3000;0.5967;0.5920;
1059.6000;0.5975;0.6020;
1059.9000;0.5999;0.6121;
1060.2000;0.5967;0.6096;
1060.5000;0.5975;0.6071;
1060.8000;0.5983;0.6071;
1061.1000;0.5958;0.5995;
1061.4000;0.5975;0.6046;
1061.7000;0.5967;0.6096;
1062.0000;0.5975;0.6071;
1062.3000;0.5958;0.5920;
1062.6000;0.5975;0.5894;
1062.9000;0.5975;0.5894;
1063.2000;0.5983;0.5894;
1063.5000;0.5942;0.5869;
1063.8000;0.5975;0.5995;
1064.1000;0.5958;0.5995;
1064.4000;0.5999;0.6121;
1064.7000;0.5983;0.5995;
1065.0000;0.5967;0.5970;
1065.3000;0.6024;0.6121;
1065.6000;0.5983;0.6046;
1065.9000;0.5958;0.5945;
1066.2000;0.5991;0.6046;
1066.5000;0.5975;0.6071;
1066.8000;0.5918;0.5844;
1067.1000;0.5967;0.5995;
1067.4000;0.5967;0.6020;
1067.7000;0.5967;0.6071;
1068.0000;0.5983;0.6172;
1068.3000;0.6024;0.6297;
1068.6000;0.5926;0.6121;
1068.9000;0.5975;0.6272;
1069.2000;0.5942;0.6046;
1069.5000;0.5975;0.6121;
1069.8000;0.5950;0.6121;
1070.1000;0.5975;0.6247;
1070.4000;0.5975;0.6323;
1070.7000;0.5958;0.6323;
1071.0000;0.5958;0.6323;
1071.3000;0.5967;0.6297;
1071.6000;0.5950;0.6297;
1071.9000;0.5967;0.6373;
1072.2000;0.5975;0.6323;
1072.5000;0.5893;0.6071;
1072.8000;0.5950;0.6172;
1073.1000;0.5983;0.6146;
1073.4000;0.5926;0.6096;
1073.7000;0.5950;0.6172;
1074.0000;0.5950;0.6121;
1074.3000;0.5958;0.6046;
1074.6000;0.5975;0.6020;
1074.9000;0.5967;0.5995;
1075.2000;0.6015;0.6222;
1075.5000;0.5983;0.6172;
1075.8000;0.5967;0.6172;
1076.1000;0.5967;0.6096;
1076.4000;0.5975;0.6121;
1076.7000;0.5975;0.6121;
1077.0000;0.5975;0.6197;
1077.3000;0.5958;0.6146;
1077.6000;0.5967;0.6071;
1077.9000;0.5983;0.6071;
1078.2000;0.5999;0.5995;
1078.5000;0.5958;0.5920;
1078.8000;0.5967;0.6020;
1079.1000;0.5958;0.5995;
1079.4000;0.5958;0.5995;
1079.7000;0.5877;0.5769;
1080.0000;0.5967;0.5970;
1080.3000;0.5950;0.5945;
1080.6000;0.5967;0.5894;
1080.9000;0.5958;0.5920;
1081.2000;0.5958;0.5869;
1081.5000;0.5967;0.5970;
1081.8000;0.5975;0.6046;
1082.1000;0.5967;0.6096;
1082.4000;0.5958;0.6020;
1082.7000;0.5967;0.5995;
1083.0000;0.5999;0.6071;
1083.3000;0.5958;0.6096;
1083.6000;0.5967;0.6096;
1083.9000;0.5958;0.6046;
1084.2000;0.5958;0.5995;
1084.5000;0.5958;0.5894;
1084.8000;0.5975;0.5945;
1085.1000;0.5975;0.5970;
1085.4000;0.5958;0.6020;
1085.7000;0.5958;0.6020;
1086.0000;0.5958;0.6046;
1086.3000;0.5958;0.5995;
1086.6000;0.5967;0.6046;
1086.9000;0.5967;0.6071;
1087.2000;0.5967;0.6046;
1087.5000;0.5950;0.6121;
1087.8000;0.5958;0.6172;
1088.1000;0.5967;0.6096;
1088.4000;0.5967;0.6046;
1088.7000;0.5958;0.5995;
1089.0000;0.5958;0.6020;
1089.3000;0.5958;0.6046;
1089.6000;0.5983;0.6071;
1089.9000;0.5958;0.6046;
1090.2000;0.5934;0.5995;
1090.5000;0.5958;0.6020;
1090.8000;0.5967;0.6096;
1091.1000;0.5958;0.6121;
1091.4000;0.5967;0.6121;
1091.7000;0.5983;0.6197;
1092.0000;0.5967;0.6121;
1092.3000;0.5975;0.6071;
1092.6000;0.5958;0.6071;
1092.9000;0.5967;0.6172;
1093.2000;0.5975;0.6146;
1093.5000;0.5967;0.6096;
1093.8000;0.5983;0.6096;
1094.1000;0.5967;0.6071;
1094.4000;0.5967;0.5995;
1094.7000;0.5983;0.6071;
1095.0000;0.5958;0.6046;
1095.3000;0.5967;0.6096;
1095.6000;0.5934;0.5970;
1095.9000;0.5958;0.6096;
1096.2000;0.5983;0.6096;
1096.5000;0.5950;0.6071;
1096.8000;0.5918;0.6020;
1097.1000;0.5967;0.6121;
1097.4000;0.5967;0.6172;
1097.7000;0.5999;0.6222;
1098.0000;0.5983;0.6247;
1098.3000;0.5934;0.6172;
1098.6000;0.5967;0.6297;
1098.9000;0.5942;0.6323;
1099.2000;0.5958;0.6348;
1099.5000;0.5958;0.6398;
1099.8000;0.5983;0.6398;
1100.1000;0.5942;0.6297;
1100.4000;0.5950;0.6297;
1100.7000;0.5942;0.6247;
1101.0000;0.5967;0.6222;
1101.3000;0.5934;0.6121;
1101.6000;0.5942;0.6146;
1101.9000;0.5958;0.6146;
1102.2000;0.5983;0.6222;
1102.5000;0.5967;0.6172;
1102.8000;0.5958;0.6121;
1103.1000;0.5958;0.6146;
1103.4000;0.5958;0.6146;
1103.7000;0.5950;0.6146;
1104.0000;0.5942;0.6096;
1104.3000;0.5893;0.5945;
1104.6000;0.5958;0.6071;
1104.9000;0.5934;0.6096;
1105.2000;0.5918;0.6096;
1105.5000;0.5958;0.6197;
1105.8000;0.5950;0.6197;
1106.1000;0.5950;0.6197;
1106.4000;0.5942;0.6121;
1106.7000;0.5942;0.6146;
1107.0000;0.5950;0.6121;
1107.3000;0.6015;0.6247;
1107.6000;0.5942;0.5995;
1107.9000;0.5934;0.6020;
1108.2000;0.5958;0.6046;
1108.5000;0.5942;0.6046;
1108.8000;0.5958;0.6121;
1109.1000;0.5958;0.6046;
1109.4000;0.5958;0.6096;
1109.7000;0.5942;0.6146;
1110.0000;0.5958;0.6297;
1110.3000;0.5967;0.6272;
1110.6000;0.5942;0.6297;
1110.9000;0.5958;0.6247;
1111.2000;0.5958;0.6172;
1111.5000;0.5950;0.6121;
1111.8000;0.5950;0.6172;
1112.1000;0.5934;0.6096;
1112.4000;0.5958;0.6146;
1112.7000;0.5950;0.6020;
1113.0000;0.5967;0.5970;
1113.3000;0.5942;0.5920;
1113.6000;0.5902;0.5819;
1113.9000;0.5950;0.6071;
1114.2000;0.5934;0.6121;
1114.5000;0.5942;0.6121;
1114.8000;0.5942;0.6121;
1115.1000;0.5967;0.6071;
1115.4000;0.5967;0.6046;
1115.7000;0.5893;0.5894;
1116.0000;0.5950;0.6020;
1116.3000;0.5991;0.6197;
1116.6000;0.5958;0.6222;
1116.9000;0.5934;0.6222;
1117.2000;0.5950;0.6146;
1117.5000;0.5950;0.6146;
1117.8000;0.5942;0.6121;
1118.1000;0.5942;0.6121;
1118.4000;0.5942;0.6071;
1118.7000;0.5958;0.6096;
1119.0000;0.5950;0.5970;
1119.3000;0.5942;0.5945;
1119.6000;0.5942;0.6046;
1119.9000;0.5958;0.6121;
1120.2000;0.5967;0.6146;
1120.5000;0.5975;0.6222;
1120.8000;0.5983;0.6222;
1121.1000;0.5934;0.6071;
1121.4000;0.5967;0.6197;
1121.7000;0.5958;0.6222;
1122.0000;0.5942;0.6146;
1122.3000;0.5950;0.6197;
1122.6000;0.5958;0.6222;
1122.9000;0.5942;0.6146;
1123.2000;0.5942;0.6096;
1123.5000;0.5950;0.6222;
1123.8000;0.5942;0.6272;
1124.1000;0.5958;0.6272;
1124.4000;0.5893;0.6071;
1124.7000;0.5934;0.6121;
1125.0000;0.5967;0.6197;
1125.3000;0.5950;0.6172;
1125.6000;0.5950;0.6121;
1125.9000;0.5950;0.6146;
1126.2000;0.5958;0.6172;
1126.5000;0.5950;0.6197;
1126.8000;0.5983;0.6323;
1127.1000;0.5958;0.6272;
1127.4000;0.5950;0.6297;
1127.7000;0.5942;0.6348;
1128.0000;0.5942;0.6348;
1128.3000;0.5934;0.6398;
1128.6000;0.5983;0.6575;
1128.9000;0.5950;0.6499;
1129.2000;0.5934;0.6474;
1129.5000;0.5902;0.6373;
1129.8000;0.5926;0.6398;
1130.1000;0.5934;0.6449;
1130.4000;0.5877;0.6247;
1130.7000;0.5885;0.6272;
1131.0000;0.5942;0.6373;
1131.3000;0.5942;0.6373;
1131.6000;0.5950;0.6398;
1131.9000;0.5942;0.6323;
1132.2000;0.5934;0.6272;
1132.5000;0.5942;0.6323;
1132.8000;0.5950;0.6348;
1133.1000;0.5934;0.6323;
1133.4000;0.5942;0.6272;
1133.7000;0.5942;0.6297;
1134.0000;0.5950;0.6272;
1134.3000;0.5950;0.6247;
1134.6000;0.5958;0.6247;
1134.9000;0.5942;0.6197;
1135.2000;0.5934;0.6146;
1135.5000;0.5958;0.6247;
1135.8000;0.5926;0.6272;
1136.1000;0.5950;0.6323;
1136.4000;0.5934;0.6272;
1136.7000;0.5942;0.6222;
1137.0000;0.5950;0.6247;
1137.3000;0.5893;0.6146;
1137.6000;0.5942;0.6323;
1137.9000;0.5950;0.6348;
1138.2000;0.5967;0.6348;
1138.5000;0.5942;0.6348;
1138.8000;0.5918;0.6323;
1139.1000;0.5950;0.6323;
1139.4000;0.5983;0.6423;
1139.7000;0.5950;0.6297;
1140.0000;0.5942;0.6348;
1140.3000;0.5991;0.6524;
1140.6000;0.5950;0.6423;
1140.9000;0.5958;0.6348;
1141.2000;0.5958;0.6348;
1141.5000;0.5918;0.6323;
1141.8000;0.5950;0.6373;
1142.1000;0.5967;0.6499;
1142.4000;0.5942;0.6373;
1142.7000;0.5942;0.6348;
1143.0000;0.5958;0.6373;
1143.3000;0.5958;0.6323;
1143.6000;0.5975;0.6423;
1143.9000;0.5918;0.6272;
1144.2000;0.5942;0.6398;
1144.5000;0.5942;0.6423;
1144.8000;0.5958;0.6398;
1145.1000;0.5942;0.6272;
1145.4000;0.5967;0.6272;
1145.7000;0.5934;0.6121;
1146.0000;0.5983;0.6373;
1146.3000;0.5967;0.6323;
1146.6000;0.5942;0.6272;
1146.9000;0.5950;0.6373;
1147.2000;0.5885;0.6197;
1147.5000;0.5942;0.6373;
1147.8000;0.5918;0.6373;
1148.1000;0.5934;0.6323;
1148.4000;0.5934;0.6297;
1148.7000;0.5942;0.6272;
1149.0000;0.5942;0.6297;
1149.3000;0.5999;0.6524;
1149.6000;0.5926;0.6323;
1149.9000;0.5942;0.6348;
1150.2000;0.5942;0.6373;
1150.5000;0.6015;0.6524;
1150.8000;0.5958;0.6398;
1151.1000;0.5950;0.6373;
1151.4000;0.5958;0.6423;
1151.7000;0.5967;0.6348;
1152.0000;0.5975;0.6398;
1152.3000;0.5958;0.6323;
1152.6000;0.5942;0.6297;
1152.9000;0.5942;0.6247;
1153.2000;0.6015;0.6449;
1153.5000;0.5950;0.6297;
1153.8000;0.5958;0.6348;
1154.1000;0.5934;0.6323;
1154.4000;0.5893;0.6222;
1154.7000;0.5934;0.6348;
1155.0000;0.5999;0.6474;
1155.3000;0.5942;0.6297;
1155.6000;0.5934;0.6323;
1155.9000;0.5942;0.6373;
1156.2000;0.5958;0.6297;
1156.5000;0.5942;0.6121;
1156.8000;0.5926;0.6146;
1157.1000;0.5950;0.6222;
1157.4000;0.5950;0.6222;
1157.7000;0.6007;0.6348;
1158.0000;0.5942;0.6222;
1158.3000;0.5958;0.6272;
1158.6000;0.5942;0.6247;
1158.9000;0.5926;0.6222;
1159.2000;0.5942;0.6323;
1159.5000;0.5926;0.6247;
1159.8000;0.5926;0.6272;
1160.1000;0.5934;0.6272;
1160.4000;0.5934;0.6297;
1160.7000;0.5958;0.6348;
1161.0000;0.5950;0.6348;
1161.3000;0.5983;0.6398;
1161.6000;0.5942;0.6373;
1161.9000;0.5942;0.6373;
1162.2000;0.5950;0.6373;
1162.5000;0.5934;0.6323;
1162.8000;0.5910;0.6247;
1163.1000;0.5893;0.6146;
1163.4000;0.5950;0.6272;
1163.7000;0.5885;0.6172;
1164.0000;0.5926;0.6272;
1164.3000;0.5991;0.6499;
1164.6000;0.5934;0.6373;
1164.9000;0.5934;0.6297;
1165.2000;0.5910;0.6247;
1165.5000;0.5910;0.6323;
1165.8000;0.5942;0.6398;
1166.1000;0.5950;0.6398;
1166.4000;0.5934;0.6348;
1166.7000;0.5942;0.6297;
1167.0000;0.5926;0.6272;
1167.3000;0.5942;0.6373;
1167.6000;0.5942;0.6323;
1167.9000;0.5910;0.6247;
1168.2000;0.5942;0.6373;
1168.5000;0.5926;0.6323;
1168.8000;0.5942;0.6373;
1169.1000;0.5877;0.6046;
1169.4000;0.5926;0.6096;
1169.7000;0.5942;0.6146;
1170.0000;0.5934;0.6272;
1170.3000;0.5934;0.6247;
1170.6000;0.5910;0.6272;
1170.9000;0.5934;0.6373;
1171.2000;0.5942;0.6323;
1171.5000;0.5926;0.6222;
1171.8000;0.5893;0.6096;
1172.1000;0.5942;0.6197;
1172.4000;0.6015;0.6449;
1172.7000;0.5958;0.6323;
1173.0000;0.5942;0.6348;
1173.3000;0.5934;0.6348;
1173.6000;0.5950;0.6323;
1173.9000;0.5918;0.6247;
1174.2000;0.5975;0.6398;
1174.5000;0.5926;0.6272;
1174.8000;0.5893;0.6146;
1175.1000;0.5934;0.6197;
1175.4000;0.5926;0.6146;
1175.7000;0.5918;0.6172;
1176.0000;0.5934;0.6121;
1176.3000;0.5926;0.6046;
1176.6000;0.5934;0.6146;
1176.9000;0.5902;0.6071;
1177.2000;0.5926;0.6172;
1177.5000;0.5958;0.6297;
1177.8000;0.5918;0.6323;
1178.1000;0.5934;0.6323;
1178.4000;0.5958;0.6348;
1178.7000;0.5926;0.6297;
1179.0000;0.5942;0.6348;
1179.3000;0.5926;0.6272;
1179.6000;0.5934;0.6373;
1179.9000;0.5958;0.6423;
1180.2000;0.5926;0.6348;
1180.5000;0.5934;0.6247;
1180.8000;0.5918;0.6272;
1181.1000;0.5926;0.6247;
1181.4000;0.5942;0.6197;
1181.7000;0.5926;0.6146;
1182.0000;0.5926;0.6096;
1182.3000;0.5918;0.6046;
1182.6000;0.5934;0.6121;
1182.9000;0.5934;0.6172;
1183.2000;0.5893;0.6146;
1183.5000;0.5942;0.6272;
1183.8000;0.5934;0.6197;
1184.1000;0.5877;0.6071;
1184.4000;0.5926;0.6222;
1184.7000;0.5877;0.6121;
1185.0000;0.5934;0.6197;
1185.3000;0.5950;0.6222;
1185.6000;0.5975;0.6247;
1185.9000;0.5942;0.6247;
1186.2000;0.5926;0.6247;
1186.5000;0.5926;0.6297;
1186.8000;0.5942;0.6272;
1187.1000;0.5869;0.6071;
1187.4000;0.5926;0.6222;
1187.7000;0.5942;0.6197;
1188.0000;0.5934;0.6222;
1188.3000;0.5934;0.6247;
1188.6000;0.5926;0.6172;
1188.9000;0.5942;0.6222;
1189.2000;0.5934;0.6222;
1189.5000;0.5942;0.6222;
1189.8000;0.5942;0.6272;
1190.1000;0.5934;0.6222;
1190.4000;0.5942;0.6197;
1190.7000;0.5967;0.6247;
1191.0000;0.5926;0.6197;
1191.3000;0.5942;0.6197;
1191.6000;0.5918;0.6146;
1191.9000;0.5918;0.6096;
1192.2000;0.5934;0.6096;
1192.5000;0.5918;0.6146;
1192.8000;0.5942;0.6172;
1193.1000;0.5926;0.6146;
1193.4000;0.5942;0.6121;
1193.7000;0.5926;0.6046;
1194.0000;0.5942;0.6096;
1194.3000;0.5967;0.6172;
1194.6000;0.5934;0.6172;
1194.9000;0.5918;0.6172;
1195.2000;0.5934;0.6146;
1195.5000;0.5934;0.6071;
1195.8000;0.5942;0.6020;
1196.1000;0.5926;0.6046;
1196.4000;0.5942;0.6020;
1196.7000;0.6007;0.6121;
1197.0000;0.5934;0.5970;
1197.3000;0.5934;0.6020;
1197.6000;0.5934;0.6071;
1197.9000;0.5942;0.6121;
1198.2000;0.5942;0.6197;
1198.5000;0.5926;0.6222;
1198.8000;0.5958;0.6323;
1199.1000;0.5926;0.6197;
1199.4000;0.5934;0.6121;
1199.7000;0.5926;0.6121;
1200.0000;0.5918;0.6146;
1200.3000;0.5918;0.6121;
1200.6000;0.5918;0.6197;
1200.9000;0.5902;0.6121;
1201.2000;0.5918;0.6146;
1201.5000;0.5926;0.6172;
1201.8000;0.5958;0.6323;
1202.1000;0.5918;0.6197;
1202.4000;0.5910;0.6297;
1202.7000;0.5942;0.6323;
1203.0000;0.5926;0.6222;
1203.3000;0.5926;0.6172;
1203.6000;0.5942;0.6272;
1203.9000;0.5902;0.6172;
1204.2000;0.5918;0.6297;
1204.5000;0.5926;0.6297;
1204.8000;0.5934;0.6348;
1205.1000;0.5926;0.6348;
1205.4000;0.5975;0.6449;
1205.7000;0.5893;0.6222;
1206.0000;0.5926;0.6297;
1206.3000;0.5918;0.6323;
1206.6000;0.5918;0.6272;
1206.9000;0.5918;0.6323;
1207.2000;0.5918;0.6222;
1207.5000;0.5918;0.6197;
1207.8000;0.5958;0.6247;
1208.1000;0.5926;0.6197;
1208.4000;0.5999;0.6323;
1208.7000;0.5926;0.6096;
1209.0000;0.5926;0.6096;
1209.3000;0.5950;0.6096;
1209.6000;0.5934;0.6071;
1209.9000;0.5926;0.5995;
1210.2000;0.5934;0.5945;
1210.5000;0.5926;0.5970;
1210.8000;0.5918;0.5920;
1211.1000;0.5918;0.5920;
1211.4000;0.5934;0.6096;
1211.7000;0.5910;0.6096;
1212.0000;0.5926;0.6121;
1212.3000;0.5918;0.6197;
1212.6000;0.5918;0.6222;
1212.9000;0.5910;0.6197;
1213.2000;0.5942;0.6272;
1213.5000;0.5910;0.6172;
1213.8000;0.5934;0.6297;
1214.1000;0.5958;0.6323;
1214.4000;0.5918;0.6348;
1214.7000;0.5918;0.6323;
1215.0000;0.5934;0.6323;
1215.3000;0.5918;0.6247;
1215.6000;0.5918;0.6222;
1215.9000;0.5918;0.6297;
1216.2000;0.5942;0.6272;
1216.5000;0.5926;0.6247;
1216.8000;0.5934;0.6222;
1217.1000;0.5926;0.6222;
1217.4000;0.5926;0.6297;
1217.7000;0.5926;0.6297;
1218.0000;0.5918;0.6146;
1218.3000;0.5926;0.6146;
1218.6000;0.5950;0.6222;
1218.9000;0.5910;0.6197;
1219.2000;0.5926;0.6323;
1219.5000;0.5942;0.6373;
1219.8000;0.5934;0.6373;
1220.1000;0.5942;0.6323;
1220.4000;0.5910;0.6272;
1220.7000;0.5918;0.6272;
1221.0000;0.5926;0.6373;
1221.3000;0.5926;0.6449;
1221.6000;0.5918;0.6423;
1221.9000;0.5910;0.6423;
1222.2000;0.5910;0.6423;
1222.5000;0.5902;0.6373;
1222.8000;0.5934;0.6398;
1223.1000;0.5910;0.6398;
1223.4000;0.5926;0.6398;
1223.7000;0.5926;0.6373;
1224.0000;0.5918;0.6272;
1224.3000;0.5934;0.6272;
1224.6000;0.5934;0.6323;
1224.9000;0.5926;0.6373;
1225.2000;0.5918;0.6398;
1225.5000;0.5926;0.6423;
1225.8000;0.5918;0.6423;
1226.1000;0.5918;0.6373;
1226.4000;0.5910;0.6348;
1226.7000;0.5918;0.6423;
1227.0000;0.5926;0.6474;
1227.3000;0.5910;0.6423;
1227.6000;0.5926;0.6423;
1227.9000;0.5934;0.6549;
1228.2000;0.5869;0.6474;
1228.5000;0.5926;0.6575;
1228.8000;0.5958;0.6625;
1229.1000;0.5910;0.6373;
1229.4000;0.5934;0.6373;
1229.7000;0.5934;0.6373;
1230.0000;0.5934;0.6423;
1230.3000;0.5950;0.6499;
1230.6000;0.5950;0.6549;
1230.9000;0.5918;0.6373;
1231.2000;0.5918;0.6423;
1231.5000;0.5926;0.6423;
1231.8000;0.5942;0.6398;
1232.1000;0.5869;0.6197;
1232.4000;0.5934;0.6323;
1232.7000;0.5918;0.6222;
1233.0000;0.5934;0.6247;
1233.3000;0.5918;0.6373;
1233.6000;0.5934;0.6373;
1233.9000;0.5910;0.6297;
1234.2000;0.5983;0.6297;
1234.5000;0.5918;0.6172;
1234.8000;0.5967;0.6297;
1235.1000;0.5926;0.6172;
1235.4000;0.5910;0.6172;
1235.7000;0.5934;0.6172;
1236.0000;0.5918;0.6146;
1236.3000;0.5918;0.6222;
1236.6000;0.5910;0.6172;
1236.9000;0.5918;0.6096;
1237.2000;0.5910;0.6071;
1237.5000;0.5926;0.6146;
1237.8000;0.5918;0.6323;
1238.1000;0.5910;0.6297;
1238.4000;0.5885;0.6247;
1238.7000;0.5926;0.6373;
1239.0000;0.5934;0.6449;
1239.3000;0.5918;0.6348;
1239.6000;0.5902;0.6272;
1239.9000;0.5910;0.6222;
1240.2000;0.5918;0.6297;
1240.5000;0.5934;0.6297;
1240.8000;0.5926;0.6323;
1241.1000;0.5910;0.6222;
1241.4000;0.5926;0.6323;
1241.7000;0.5910;0.6297;
1242.0000;0.5926;0.6348;
1242.3000;0.5926;0.6423;
1242.6000;0.5926;0.6423;
1242.9000;0.5926;0.6323;
1243.2000;0.5910;0.6323;
1243.5000;0.5934;0.6247;
1243.8000;0.5918;0.6197;
1244.1000;0.5942;0.6197;
1244.4000;0.5926;0.6172;
1244.7000;0.5926;0.6146;
1245.0000;0.5934;0.6247;
1245.3000;0.5926;0.6172;
1245.6000;0.5934;0.6197;
1245.9000;0.5910;0.6197;
1246.2000;0.5910;0.6272;
1246.5000;0.5942;0.6297;
1246.8000;0.5918;0.6247;
1247.1000;0.5918;0.6172;
1247.4000;0.5934;0.6247;
1247.7000;0.5918;0.6197;
1248.0000;0.5950;0.6297;
1248.3000;0.5910;0.6172;
1248.6000;0.5918;0.6146;
1248.9000;0.5934;0.6247;
1249.2000;0.5934;0.6247;
1249.5000;0.5918;0.6272;
1249.8000;0.5918;0.6247;
1250.1000;0.5926;0.6348;
1250.4000;0.6015;0.6600;
1250.7000;0.5910;0.6297;
1251.0000;0.5893;0.6247;
1251.3000;0.5918;0.6272;
1251.6000;0.5926;0.6247;
1251.9000;0.5918;0.6247;
1252.2000;0.5902;0.6222;
1252.5000;0.5918;0.6197;
1252.8000;0.5926;0.6272;
1253.1000;0.5950;0.6297;
1253.4000;0.5934;0.6247;
1253.7000;0.5902;0.6146;
1254.0000;0.5918;0.6272;
1254.3000;0.5861;0.6121;
1254.6000;0.5918;0.6247;
1254.9000;0.5885;0.6096;
1255.2000;0.5950;0.6222;
1255.5000;0.5934;0.6197;
1255.8000;0.5910;0.6046;
1256.1000;0.5926;0.6121;
1256.4000;0.5918;0.6096;
1256.7000;0.5967;0.6222;
1257.0000;0.5902;0.6121;
1257.3000;0.5934;0.6172;
1257.6000;0.5918;0.6146;
1257.9000;0.5934;0.6222;
1258.2000;0.5926;0.6197;
1258.5000;0.5926;0.6146;
1258.8000;0.5902;0.6121;
1259.1000;0.5926;0.6172;
1259.4000;0.5926;0.6197;
1259.7000;0.5926;0.6121;
1260.0000;0.5893;0.6071;
1260.3000;0.5918;0.6222;
1260.6000;0.5934;0.6272;
1260.9000;0.5910;0.6247;
1261.2000;0.5902;0.6197;
1261.5000;0.5926;0.6272;
1261.8000;0.5926;0.6197;
1262.1000;0.5918;0.6071;
1262.4000;0.5926;0.6096;
1262.7000;0.5910;0.6121;
1263.0000;0.5934;0.6121;
1263.3000;0.5926;0.6146;
1263.6000;0.5934;0.6121;
1263.9000;0.5926;0.6172;
1264.2000;0.5902;0.6121;
1264.5000;0.5885;0.6046;
1264.8000;0.5885;0.6046;
1265.1000;0.5918;0.6046;
1265.4000;0.5902;0.6096;
1265.7000;0.5934;0.6222;
1266.0000;0.5926;0.6172;
1266.3000;0.5918;0.6247;
1266.6000;0.5934;0.6348;
1266.9000;0.5910;0.6247;
1267.2000;0.5918;0.6272;
1267.5000;0.5893;0.6323;
1267.8000;0.5910;0.6348;
1268.1000;0.5877;0.6247;
1268.4000;0.5918;0.6373;
1268.7000;0.5893;0.6398;
1269.0000;0.5853;0.6272;
1269.3000;0.5869;0.6373;
1269.6000;0.5926;0.6474;
1269.9000;0.5902;0.6423;
1270.2000;0.5910;0.6474;
1270.5000;0.5918;0.6499;
1270.8000;0.5975;0.6625;
1271.1000;0.5918;0.6449;
1271.4000;0.5885;0.6348;
1271.7000;0.5910;0.6323;
1272.0000;0.5902;0.6297;
1272.3000;0.5926;0.6323;
1272.6000;0.5910;0.6323;
1272.9000;0.5902;0.6398;
1273.2000;0.5910;0.6423;
1273.5000;0.5910;0.6423;
1273.8000;0.5902;0.6373;
1274.1000;0.5893;0.6398;
1274.4000;0.5902;0.6373;
1274.7000;0.5910;0.6398;
1275.0000;0.5893;0.6449;
1275.3000;0.5918;0.6398;
1275.6000;0.5918;0.6398;
1275.9000;0.5918;0.6323;
1276.2000;0.5910;0.6323;
1276.5000;0.5893;0.6272;
1276.8000;0.5885;0.6247;
1277.1000;0.5918;0.6272;
1277.4000;0.5885;0.6222;
1277.7000;0.5885;0.6121;
1278.0000;0.5902;0.6247;
1278.3000;0.5902;0.6197;
1278.6000;0.5902;0.6272;
1278.9000;0.5910;0.6323;
1279.2000;0.5885;0.6247;
1279.5000;0.5918;0.6348;
1279.8000;0.5918;0.6348;
1280.1000;0.5910;0.6373;
1280.4000;0.5902;0.6398;
1280.7000;0.5910;0.6423;
1281.0000;0.5902;0.6398;
1281.3000;0.5893;0.6373;
1281.6000;0.5910;0.6323;
1281.9000;0.5918;0.6297;
1282.2000;0.5918;0.6449;
1282.5000;0.5910;0.6398;
1282.8000;0.5885;0.6323;
1283.1000;0.5918;0.6398;
1283.4000;0.5910;0.6398;
1283.7000;0.5902;0.6398;
1284.0000;0.5902;0.6398;
1284.3000;0.5893;0.6373;
1284.6000;0.5910;0.6398;
1284.9000;0.5926;0.6398;
1285.2000;0.5910;0.6423;
1285.5000;0.5910;0.6423;
1285.8000;0.5910;0.6373;
1286.1000;0.5983;0.6625;
1286.4000;0.5893;0.6499;
1286.7000;0.5958;0.6600;
1287.0000;0.5934;0.6524;
1287.3000;0.5918;0.6575;
1287.6000;0.5918;0.6499;
1287.9000;0.5877;0.6272;
1288.2000;0.5926;0.6398;
1288.5000;0.5934;0.6323;
1288.8000;0.5893;0.6172;
1289.1000;0.5902;0.6121;
1289.4000;0.5902;0.6096;
1289.7000;0.5926;0.6197;
1290.0000;0.5958;0.6373;
1290.3000;0.5918;0.6247;
1290.6000;0.5910;0.6197;
1290.9000;0.5877;0.6172;
1291.2000;0.5918;0.6272;
1291.5000;0.5918;0.6247;
1291.8000;0.5918;0.6297;
1292.1000;0.5893;0.6247;
1292.4000;0.5902;0.6172;
1292.7000;0.5861;0.6146;
1293.0000;0.5902;0.6172;
1293.3000;0.5910;0.6121;
1293.6000;0.5918;0.6121;
1293.9000;0.5885;0.6046;
1294.2000;0.5918;0.6121;
1294.5000;0.5926;0.6247;
1294.8000;0.5934;0.6222;
1295.1000;0.5902;0.6272;
1295.4000;0.5918;0.6146;
1295.7000;0.5910;0.6222;
1296.0000;0.5918;0.6247;
1296.3000;0.5918;0.6272;
1296.6000;0.5910;0.6297;
1296.9000;0.5910;0.6348;
1297.2000;0.5918;0.6297;
1297.5000;0.5926;0.6348;
1297.8000;0.5893;0.6272;
1298.1000;0.5893;0.6272;
1298.4000;0.5893;0.6323;
1298.7000;0.5918;0.6323;
1299.0000;0.5910;0.6297;
1299.3000;0.5902;0.6222;
1299.6000;0.5902;0.6222;
1299.9000;0.5902;0.6222;
1300.2000;0.5910;0.6323;
1300.5000;0.5902;0.6323;
1300.8000;0.5910;0.6272;
1301.1000;0.5926;0.6323;
1301.4000;0.5902;0.6297;
1301.7000;0.5885;0.6222;
1302.0000;0.5902;0.6323;
1302.3000;0.5910;0.6348;
1302.6000;0.5902;0.6247;
1302.9000;0.5910;0.6297;
1303.2000;0.5885;0.6323;
1303.5000;0.5926;0.6348;
1303.8000;0.5934;0.6423;
1304.1000;0.5902;0.6423;
1304.4000;0.5885;0.6373;
1304.7000;0.5918;0.6348;
1305.0000;0.5918;0.6348;
1305.3000;0.5902;0.6348;
1305.6000;0.5902;0.6398;
1305.9000;0.5918;0.6398;
1306.2000;0.5910;0.6423;
1306.5000;0.5918;0.6449;
1306.8000;0.5877;0.6323;
1307.1000;0.5893;0.6398;
1307.4000;0.5910;0.6398;
1307.7000;0.5885;0.6398;
1308.0000;0.5885;0.6499;
1308.3000;0.5902;0.6423;
1308.6000;0.5861;0.6373;
1308.9000;0.5893;0.6398;
1309.2000;0.5910;0.6449;
1309.5000;0.5902;0.6474;
1309.8000;0.5861;0.6373;
1310.1000;0.5910;0.6524;
1310.4000;0.5910;0.6524;
1310.7000;0.5942;0.6549;
1311.0000;0.5902;0.6373;
1311.3000;0.5918;0.6423;
1311.6000;0.5893;0.6474;
1311.9000;0.5934;0.6549;
1312.2000;0.5926;0.6423;
1312.5000;0.5893;0.6222;
1312.8000;0.5910;0.6172;
1313.1000;0.5902;0.6197;
1313.4000;0.5893;0.6297;
1313.7000;0.5902;0.6297;
1314.0000;0.5910;0.6423;
1314.3000;0.5910;0.6474;
1314.6000;0.5893;0.6474;
1314.9000;0.5893;0.6524;
1315.2000;0.5910;0.6575;
1315.5000;0.5910;0.6575;
1315.8000;0.5893;0.6524;
1316.1000;0.5902;0.6575;
1316.4000;0.5902;0.6625;
1316.7000;0.5893;0.6600;
1317.0000;0.5910;0.6701;
1317.3000;0.5910;0.6600;
1317.6000;0.5902;0.6524;
1317.9000;0.5910;0.6600;
1318.2000;0.5893;0.6549;
1318.5000;0.5958;0.6701;
1318.8000;0.5910;0.6549;
1319.1000;0.5902;0.6474;
1319.4000;0.5975;0.6701;
1319.7000;0.5910;0.6499;
1320.0000;0.5893;0.6449;
1320.3000;0.5910;0.6474;
1320.6000;0.5918;0.6524;
1320.9000;0.5877;0.6398;
1321.2000;0.5885;0.6474;
1321.5000;0.5902;0.6524;
1321.8000;0.5893;0.6449;
1322.1000;0.5885;0.6499;
1322.4000;0.5885;0.6449;
1322.7000;0.5885;0.6449;
1323.0000;0.5893;0.6423;
1323.3000;0.5893;0.6373;
1323.6000;0.5918;0.6323;
1323.9000;0.5877;0.6323;
1324.2000;0.5967;0.6549;
1324.5000;0.5902;0.6348;
1324.8000;0.5893;0.6297;
1325.1000;0.5885;0.6272;
1325.4000;0.5885;0.6348;
1325.7000;0.5910;0.6423;
1326.0000;0.5910;0.6449;
1326.3000;0.5942;0.6549;
1326.6000;0.5983;0.6524;
1326.9000;0.5926;0.6348;
1327.2000;0.5918;0.6297;
1327.5000;0.5902;0.6297;
1327.8000;0.5853;0.6222;
1328.1000;0.5910;0.6247;
1328.4000;0.5918;0.6323;
1328.7000;0.5926;0.6373;
1329.0000;0.5902;0.6373;
1329.3000;0.5910;0.6323;
1329.6000;0.5918;0.6297;
1329.9000;0.5918;0.6348;
1330.2000;0.5893;0.6323;
1330.5000;0.5918;0.6373;
1330.8000;0.5918;0.6398;
1331.1000;0.5910;0.6373;
1331.4000;0.5893;0.6449;
1331.7000;0.5918;0.6474;
1332.0000;0.5902;0.6449;
1332.3000;0.5893;0.6373;
1332.6000;0.5902;0.6373;
1332.9000;0.5910;0.6423;
1333.2000;0.5934;0.6474;
1333.5000;0.5910;0.6348;
1333.8000;0.5885;0.6373;
1334.1000;0.5893;0.6423;
1334.4000;0.5918;0.6474;
1334.7000;0.5910;0.6423;
1335.0000;0.5893;0.6348;
1335.3000;0.5902;0.6348;
1335.6000;0.5893;0.6323;
1335.9000;0.5926;0.6373;
1336.2000;0.5893;0.6373;
1336.5000;0.5902;0.6423;
1336.8000;0.5918;0.6373;
1337.1000;0.5910;0.6449;
1337.4000;0.5893;0.6398;
1337.7000;0.5926;0.6423;
1338.0000;0.5902;0.6398;
1338.3000;0.5893;0.6348;
1338.6000;0.5910;0.6272;
1338.9000;0.5885;0.6222;
1339.2000;0.5910;0.6348;
1339.5000;0.5918;0.6373;
1339.8000;0.5910;0.6297;
1340.1000;0.5918;0.6297;
1340.4000;0.5885;0.6247;
1340.7000;0.5910;0.6222;
1341.0000;0.5910;0.6222;
1341.3000;0.5893;0.6197;
1341.6000;0.5893;0.6197;
1341.9000;0.5893;0.6247;
1342.2000;0.5910;0.6247;
1342.5000;0.5902;0.6197;
1342.8000;0.5885;0.6096;
1343.1000;0.5893;0.6096;
1343.4000;0.5902;0.6121;
1343.7000;0.5877;0.6046;
1344.0000;0.5902;0.6096;
1344.3000;0.5926;0.6172;
1344.6000;0.5910;0.6096;
1344.9000;0.5902;0.6096;
1345.2000;0.5910;0.6096;
1345.5000;0.5893;0.6247;
1345.8000;0.5950;0.6373;
1346.1000;0.5902;0.6373;
1346.4000;0.5918;0.6373;
1346.7000;0.5885;0.6373;
1347.0000;0.5918;0.6398;
1347.3000;0.5918;0.6398;
1347.6000;0.5910;0.6423;
1347.9000;0.5893;0.6398;
1348.2000;0.5828;0.6222;
1348.5000;0.5902;0.6423;
1348.8000;0.5926;0.6575;
1349.1000;0.5885;0.6499;
1349.4000;0.5869;0.6423;
1349.7000;0.5918;0.6549;
1350.0000;0.5893;0.6499;
1350.3000;0.5877;0.6373;
1350.6000;0.5910;0.6423;
1350.9000;0.5902;0.6348;
1351.2000;0.5902;0.6323;
1351.5000;0.5910;0.6323;
1351.8000;0.5958;0.6549;
1352.1000;0.5893;0.6499;
1352.4000;0.5918;0.6625;
1352.7000;0.5902;0.6625;
1353.0000;0.5893;0.6650;
1353.3000;0.5918;0.6650;
1353.6000;0.5902;0.6549;
1353.9000;0.5893;0.6474;
1354.2000;0.5885;0.6348;
1354.5000;0.5902;0.6423;
1354.8000;0.5902;0.6323;
1355.1000;0.5902;0.6297;
1355.4000;0.5902;0.6348;
1355.7000;0.5885;0.6297;
1356.0000;0.5910;0.6373;
1356.3000;0.5918;0.6423;
1356.6000;0.5902;0.6449;
1356.9000;0.5902;0.6474;
1357.2000;0.5910;0.6423;
1357.5000;0.5893;0.6272;
1357.8000;0.5902;0.6272;
1358.1000;0.5918;0.6323;
1358.4000;0.5918;0.6297;
1358.7000;0.5910;0.6272;
1359.0000;0.5902;0.6247;
1359.3000;0.5893;0.6146;
1359.6000;0.5910;0.6146;
1359.9000;0.5910;0.6197;
1360.2000;0.5902;0.6373;
1360.5000;0.5893;0.6373;
1360.8000;0.5910;0.6348;
1361.1000;0.5885;0.6272;
1361.4000;0.5902;0.6222;
1361.7000;0.5885;0.6247;
1362.0000;0.5893;0.6272;
1362.3000;0.5902;0.6247;
1362.6000;0.5918;0.6449;
1362.9000;0.5902;0.6449;
1363.2000;0.5885;0.6449;
1363.5000;0.5926;0.6449;
1363.8000;0.5902;0.6373;
1364.1000;0.5902;0.6297;
1364.4000;0.5885;0.6222;
1364.7000;0.5902;0.6297;
1365.0000;0.5885;0.6297;
1365.3000;0.5877;0.6297;
1365.6000;0.5885;0.6348;
1365.9000;0.5893;0.6348;
1366.2000;0.5885;0.6323;
1366.5000;0.5893;0.6348;
1366.8000;0.5902;0.6323;
1367.1000;0.5902;0.6297;
1367.4000;0.5910;0.6323;
1367.7000;0.5958;0.6449;
1368.0000;0.5902;0.6247;
1368.3000;0.5918;0.6272;
1368.6000;0.5893;0.6222;
1368.9000;0.5975;0.6398;
1369.2000;0.5902;0.6222;
1369.5000;0.5885;0.6096;
1369.8000;0.5934;0.6172;
1370.1000;0.5926;0.6146;
1370.4000;0.5893;0.6096;
1370.7000;0.5893;0.6172;
1371.0000;0.5893;0.6197;
1371.3000;0.5845;0.6071;
1371.6000;0.5893;0.6222;
1371.9000;0.5877;0.6247;
1372.2000;0.5885;0.6348;
1372.5000;0.5902;0.6449;
1372.8000;0.5885;0.6423;
1373.1000;0.5902;0.6449;
1373.4000;0.5910;0.6449;
1373.7000;0.5893;0.6423;
1374.0000;0.5934;0.6398;
1374.3000;0.5942;0.6474;
1374.6000;0.5885;0.6348;
1374.9000;0.5902;0.6323;
1375.2000;0.5918;0.6323;
1375.5000;0.5902;0.6272;
1375.8000;0.5893;0.6222;
1376.1000;0.5885;0.6172;
1376.4000;0.5885;0.6197;
1376.7000;0.5918;0.6297;
1377.0000;0.5893;0.6222;
1377.3000;0.5950;0.6423;
1377.6000;0.5902;0.6348;
1377.9000;0.5885;0.6272;
1378.2000;0.5902;0.6323;
1378.5000;0.5918;0.6297;
1378.8000;0.5893;0.6197;
1379.1000;0.5902;0.6121;
1379.4000;0.5902;0.6121;
1379.7000;0.5910;0.6172;
1380.0000;0.5869;0.6146;
1380.3000;0.5902;0.6272;
1380.6000;0.5902;0.6247;
1380.9000;0.5885;0.6272;
1381.2000;0.5893;0.6297;
1381.5000;0.5902;0.6398;
1381.8000;0.5893;0.6474;
1382.1000;0.5885;0.6449;
1382.4000;0.5918;0.6549;
1382.7000;0.5893;0.6499;
1383.0000;0.5893;0.6549;
1383.3000;0.5910;0.6524;
1383.6000;0.5910;0.6524;
1383.9000;0.5885;0.6423;
1384.2000;0.5910;0.6373;
1384.5000;0.5902;0.6373;
1384.8000;0.5902;0.6423;
1385.1000;0.5885;0.6398;
1385.4000;0.5950;0.6499;
1385.7000;0.5893;0.6348;
1386.0000;0.5893;0.6272;
1386.3000;0.5893;0.6373;
1386.6000;0.5893;0.6297;
1386.9000;0.5902;0.6222;
1387.2000;0.5893;0.6172;
1387.5000;0.5893;0.6197;
1387.8000;0.5902;0.6247;
1388.1000;0.5902;0.6272;
1388.4000;0.5934;0.6297;
1388.7000;0.5885;0.6222;
1389.0000;0.5893;0.6172;
1389.3000;0.5893;0.6046;
1389.6000;0.5918;0.6121;
1389.9000;0.5893;0.6096;
1390.2000;0.5877;0.6096;
1390.5000;0.5910;0.6272;
1390.8000;0.5893;0.6297;
1391.1000;0.5910;0.6323;
1391.4000;0.5918;0.6398;
1391.7000;0.5910;0.6423;
1392.0000;0.5902;0.6449;
1392.3000;0.5893;0.6373;
1392.6000;0.5893;0.6323;
1392.9000;0.5910;0.6297;
1393.2000;0.5893;0.6323;
1393.5000;0.5910;0.6323;
1393.8000;0.5902;0.6398;
1394.1000;0.5893;0.6449;
1394.4000;0.5910;0.6474;
1394.7000;0.5902;0.6423;
1395.0000;0.5910;0.6449;
1395.3000;0.5877;0.6449;
1395.6000;0.5910;0.6449;
1395.9000;0.5893;0.6323;
1396.2000;0.5910;0.6272;
1396.5000;0.5902;0.6197;
1396.8000;0.5934;0.6348;
1397.1000;0.5902;0.6297;
1397.4000;0.5902;0.6348;
1397.7000;0.5893;0.6348;
1398.0000;0.5902;0.6373;
1398.3000;0.5902;0.6474;
1398.6000;0.5910;0.6474;
1398.9000;0.5902;0.6449;
1399.2000;0.5902;0.6398;
1399.5000;0.5918;0.6323;
1399.8000;0.5893;0.6323;
