time/ms;Fluo/V;P700 deltaI/I x10³;
-199.8000;0.6333;0.5718;
-199.5000;0.6349;0.5743;
-199.2000;0.6333;0.5769;
-198.9000;0.6341;0.5693;
-198.6000;0.6349;0.5643;
-198.3000;0.6349;0.5517;
-198.0000;0.6341;0.5491;
-197.7000;0.6357;0.5542;
-197.4000;0.6341;0.5643;
-197.1000;0.6341;0.5693;
-196.8000;0.6349;0.5743;
-196.5000;0.6341;0.5743;
-196.2000;0.6341;0.5769;
-195.9000;0.6341;0.5743;
-195.6000;0.6357;0.5718;
-195.3000;0.6357;0.5769;
-195.0000;0.6349;0.5894;
-194.7000;0.6365;0.5844;
-194.4000;0.6349;0.5844;
-194.1000;0.6349;0.5869;
-193.8000;0.6357;0.5894;
-193.5000;0.6349;0.5869;
-193.2000;0.6341;0.5819;
-192.9000;0.6341;0.5769;
-192.6000;0.6357;0.5769;
-192.3000;0.6349;0.5794;
-192.0000;0.6333;0.5718;
-191.7000;0.6349;0.5844;
-191.4000;0.6349;0.5894;
-191.1000;0.6341;0.5819;
-190.8000;0.6325;0.5894;
-190.5000;0.6349;0.5970;
-190.2000;0.6349;0.5945;
-189.9000;0.6333;0.5970;
-189.6000;0.6333;0.5995;
-189.3000;0.6349;0.6046;
-189.0000;0.6357;0.5995;
-188.7000;0.6309;0.5794;
-188.4000;0.6333;0.5894;
-188.1000;0.6333;0.5869;
-187.8000;0.6365;0.5945;
-187.5000;0.6382;0.5945;
-187.2000;0.6341;0.5819;
-186.9000;0.6325;0.5819;
-186.6000;0.6349;0.5894;
-186.3000;0.6374;0.6071;
-186.0000;0.6349;0.6020;
-185.7000;0.6341;0.5920;
-185.4000;0.6341;0.5945;
-185.1000;0.6365;0.5970;
-184.8000;0.6349;0.5995;
-184.5000;0.6349;0.5995;
-184.2000;0.6365;0.6020;
-183.9000;0.6357;0.5995;
-183.6000;0.6333;0.5920;
-183.3000;0.6333;0.5970;
-183.0000;0.6333;0.5970;
-182.7000;0.6349;0.5920;
-182.4000;0.6341;0.5869;
-182.1000;0.6341;0.5844;
-181.8000;0.6382;0.5920;
-181.5000;0.6422;0.6071;
-181.2000;0.6349;0.5995;
-180.9000;0.6341;0.6046;
-180.6000;0.6382;0.6096;
-180.3000;0.6317;0.5945;
-180.0000;0.6357;0.5995;
-179.7000;0.6365;0.6020;
-179.4000;0.6341;0.5970;
-179.1000;0.6349;0.5945;
-178.8000;0.6349;0.5920;
-178.5000;0.6349;0.5920;
-178.2000;0.6414;0.6096;
-177.9000;0.6341;0.5894;
-177.6000;0.6365;0.5920;
-177.3000;0.6292;0.5819;
-177.0000;0.6349;0.5995;
-176.7000;0.6333;0.5995;
-176.4000;0.6374;0.6071;
-176.1000;0.6357;0.6020;
-175.8000;0.6357;0.6046;
-175.5000;0.6357;0.6071;
-175.2000;0.6357;0.6146;
-174.9000;0.6357;0.6146;
-174.6000;0.6349;0.6121;
-174.3000;0.6341;0.6071;
-174.0000;0.6333;0.6096;
-173.7000;0.6333;0.6096;
-173.4000;0.6365;0.6197;
-173.1000;0.6333;0.6071;
-172.8000;0.6333;0.5995;
-172.5000;0.6333;0.6071;
-172.2000;0.6341;0.6197;
-171.9000;0.6333;0.6197;
-171.6000;0.6333;0.6146;
-171.3000;0.6341;0.6172;
-171.0000;0.6349;0.6121;
-170.7000;0.6341;0.6121;
-170.4000;0.6325;0.6020;
-170.1000;0.6333;0.6020;
-169.8000;0.6341;0.5970;
-169.5000;0.6422;0.6172;
-169.2000;0.6333;0.5995;
-168.9000;0.6341;0.5869;
-168.6000;0.6284;0.5769;
-168.3000;0.6406;0.6096;
-168.0000;0.6390;0.6096;
-167.7000;0.6349;0.6020;
-167.4000;0.6276;0.5844;
-167.1000;0.6309;0.5920;
-166.8000;0.6317;0.5995;
-166.5000;0.6341;0.6096;
-166.2000;0.6341;0.6046;
-165.9000;0.6341;0.6020;
-165.6000;0.6341;0.5995;
-165.3000;0.6365;0.5995;
-165.0000;0.6357;0.5995;
-164.7000;0.6374;0.5970;
-164.4000;0.6349;0.5920;
-164.1000;0.6341;0.5970;
-163.8000;0.6349;0.5869;
-163.5000;0.6349;0.5819;
-163.2000;0.6357;0.5819;
-162.9000;0.6357;0.5844;
-162.6000;0.6341;0.5794;
-162.3000;0.6341;0.5819;
-162.0000;0.6333;0.5794;
-161.7000;0.6341;0.5769;
-161.4000;0.6341;0.5794;
-161.1000;0.6341;0.5794;
-160.8000;0.6341;0.5869;
-160.5000;0.6333;0.5920;
-160.2000;0.6252;0.5693;
-159.9000;0.6341;0.5970;
-159.6000;0.6341;0.5819;
-159.3000;0.6349;0.5794;
-159.0000;0.6300;0.5693;
-158.7000;0.6341;0.5819;
-158.4000;0.6341;0.5920;
-158.1000;0.6300;0.5769;
-157.8000;0.6349;0.5769;
-157.5000;0.6341;0.5693;
-157.2000;0.6349;0.5769;
-156.9000;0.6357;0.5794;
-156.6000;0.6341;0.5769;
-156.3000;0.6349;0.5844;
-156.0000;0.6349;0.5769;
-155.7000;0.6341;0.5769;
-155.4000;0.6365;0.5794;
-155.1000;0.6333;0.5743;
-154.8000;0.6349;0.5819;
-154.5000;0.6365;0.5819;
-154.2000;0.6365;0.5894;
-153.9000;0.6357;0.5869;
-153.6000;0.6357;0.5894;
-153.3000;0.6357;0.5970;
-153.0000;0.6292;0.5869;
-152.7000;0.6357;0.6046;
-152.4000;0.6349;0.6020;
-152.1000;0.6349;0.5970;
-151.8000;0.6357;0.6020;
-151.5000;0.6341;0.5894;
-151.2000;0.6325;0.5894;
-150.9000;0.6357;0.5970;
-150.6000;0.6341;0.5970;
-150.3000;0.6333;0.5920;
-150.0000;0.6357;0.5920;
-149.7000;0.6349;0.5869;
-149.4000;0.6357;0.5769;
-149.1000;0.6349;0.5819;
-148.8000;0.6333;0.5794;
-148.5000;0.6341;0.5819;
-148.2000;0.6341;0.5668;
-147.9000;0.6341;0.5718;
-147.6000;0.6333;0.5769;
-147.3000;0.6325;0.5794;
-147.0000;0.6349;0.5844;
-146.7000;0.6325;0.5819;
-146.4000;0.6325;0.5819;
-146.1000;0.6333;0.5769;
-145.8000;0.6309;0.5718;
-145.5000;0.6317;0.5743;
-145.2000;0.6349;0.5769;
-144.9000;0.6357;0.5794;
-144.6000;0.6398;0.5894;
-144.3000;0.6349;0.5794;
-144.0000;0.6357;0.5794;
-143.7000;0.6333;0.5743;
-143.4000;0.6349;0.5668;
-143.1000;0.6390;0.5794;
-142.8000;0.6365;0.5819;
-142.5000;0.6349;0.5718;
-142.2000;0.6341;0.5794;
-141.9000;0.6341;0.5769;
-141.6000;0.6349;0.5718;
-141.3000;0.6341;0.5769;
-141.0000;0.6333;0.5743;
-140.7000;0.6349;0.5819;
-140.4000;0.6357;0.5844;
-140.1000;0.6333;0.5718;
-139.8000;0.6333;0.5743;
-139.5000;0.6341;0.5718;
-139.2000;0.6365;0.5819;
-138.9000;0.6365;0.5718;
-138.6000;0.6325;0.5643;
-138.3000;0.6309;0.5668;
-138.0000;0.6341;0.5718;
-137.7000;0.6349;0.5668;
-137.4000;0.6349;0.5668;
-137.1000;0.6349;0.5668;
-136.8000;0.6276;0.5466;
-136.5000;0.6341;0.5517;
-136.2000;0.6382;0.5668;
-135.9000;0.6349;0.5542;
-135.6000;0.6341;0.5517;
-135.3000;0.6325;0.5592;
-135.0000;0.6317;0.5668;
-134.7000;0.6333;0.5769;
-134.4000;0.6325;0.5743;
-134.1000;0.6341;0.5743;
-133.8000;0.6341;0.5743;
-133.5000;0.6341;0.5718;
-133.2000;0.6357;0.5693;
-132.9000;0.6357;0.5693;
-132.6000;0.6349;0.5643;
-132.3000;0.6341;0.5668;
-132.0000;0.6341;0.5693;
-131.7000;0.6341;0.5769;
-131.4000;0.6333;0.5794;
-131.1000;0.6333;0.5819;
-130.8000;0.6325;0.5769;
-130.5000;0.6341;0.5794;
-130.2000;0.6333;0.5743;
-129.9000;0.6357;0.5819;
-129.6000;0.6374;0.5920;
-129.3000;0.6349;0.5819;
-129.0000;0.6365;0.5869;
-128.7000;0.6357;0.5769;
-128.4000;0.6365;0.5819;
-128.1000;0.6349;0.5743;
-127.8000;0.6365;0.5769;
-127.5000;0.6349;0.5617;
-127.2000;0.6349;0.5643;
-126.9000;0.6341;0.5592;
-126.6000;0.6374;0.5668;
-126.3000;0.6357;0.5617;
-126.0000;0.6349;0.5517;
-125.7000;0.6365;0.5592;
-125.4000;0.6292;0.5416;
-125.1000;0.6333;0.5517;
-124.8000;0.6333;0.5466;
-124.5000;0.6333;0.5441;
-124.2000;0.6341;0.5567;
-123.9000;0.6349;0.5542;
-123.6000;0.6341;0.5542;
-123.3000;0.6341;0.5567;
-123.0000;0.6333;0.5567;
-122.7000;0.6349;0.5668;
-122.4000;0.6341;0.5693;
-122.1000;0.6341;0.5718;
-121.8000;0.6349;0.5794;
-121.5000;0.6276;0.5542;
-121.2000;0.6349;0.5668;
-120.9000;0.6292;0.5441;
-120.6000;0.6382;0.5643;
-120.3000;0.6349;0.5567;
-120.0000;0.6349;0.5617;
-119.7000;0.6349;0.5668;
-119.4000;0.6341;0.5567;
-119.1000;0.6349;0.5592;
-118.8000;0.6349;0.5592;
-118.5000;0.6349;0.5617;
-118.2000;0.6317;0.5643;
-117.9000;0.6341;0.5668;
-117.6000;0.6357;0.5668;
-117.3000;0.6333;0.5592;
-117.0000;0.6341;0.5592;
-116.7000;0.6300;0.5542;
-116.4000;0.6317;0.5668;
-116.1000;0.6357;0.5743;
-115.8000;0.6349;0.5718;
-115.5000;0.6333;0.5643;
-115.2000;0.6349;0.5643;
-114.9000;0.6365;0.5617;
-114.6000;0.6341;0.5567;
-114.3000;0.6349;0.5567;
-114.0000;0.6357;0.5617;
-113.7000;0.6341;0.5617;
-113.4000;0.6382;0.5769;
-113.1000;0.6374;0.5769;
-112.8000;0.6357;0.5718;
-112.5000;0.6341;0.5718;
-112.2000;0.6374;0.5819;
-111.9000;0.6357;0.5819;
-111.6000;0.6357;0.5769;
-111.3000;0.6406;0.5894;
-111.0000;0.6333;0.5693;
-110.7000;0.6349;0.5693;
-110.4000;0.6333;0.5617;
-110.1000;0.6341;0.5617;
-109.8000;0.6357;0.5668;
-109.5000;0.6349;0.5567;
-109.2000;0.6333;0.5592;
-108.9000;0.6341;0.5567;
-108.6000;0.6349;0.5542;
-108.3000;0.6341;0.5466;
-108.0000;0.6349;0.5542;
-107.7000;0.6325;0.5466;
-107.4000;0.6357;0.5542;
-107.1000;0.6317;0.5365;
-106.8000;0.6341;0.5491;
-106.5000;0.6365;0.5617;
-106.2000;0.6341;0.5567;
-105.9000;0.6341;0.5643;
-105.6000;0.6349;0.5643;
-105.3000;0.6333;0.5617;
-105.0000;0.6349;0.5718;
-104.7000;0.6365;0.5769;
-104.4000;0.6349;0.5769;
-104.1000;0.6357;0.5844;
-103.8000;0.6300;0.5718;
-103.5000;0.6357;0.5844;
-103.2000;0.6357;0.5894;
-102.9000;0.6349;0.5894;
-102.6000;0.6276;0.5693;
-102.3000;0.6349;0.5869;
-102.0000;0.6357;0.5819;
-101.7000;0.6325;0.5769;
-101.4000;0.6365;0.5869;
-101.1000;0.6349;0.5844;
-100.8000;0.6341;0.5819;
-100.5000;0.6349;0.5794;
-100.2000;0.6333;0.5769;
-99.9000;0.6341;0.5718;
-99.6000;0.6309;0.5567;
-99.3000;0.6341;0.5668;
-99.0000;0.6341;0.5643;
-98.7000;0.6333;0.5617;
-98.4000;0.6406;0.5693;
-98.1000;0.6341;0.5491;
-97.8000;0.6325;0.5391;
-97.5000;0.6333;0.5391;
-97.2000;0.6349;0.5491;
-96.9000;0.6341;0.5542;
-96.6000;0.6341;0.5592;
-96.3000;0.6349;0.5643;
-96.0000;0.6341;0.5668;
-95.7000;0.6309;0.5643;
-95.4000;0.6341;0.5693;
-95.1000;0.6349;0.5693;
-94.8000;0.6349;0.5743;
-94.5000;0.6357;0.5819;
-94.2000;0.6349;0.5920;
-93.9000;0.6341;0.5869;
-93.6000;0.6349;0.5869;
-93.3000;0.6365;0.5819;
-93.0000;0.6390;0.5844;
-92.7000;0.6382;0.5869;
-92.4000;0.6357;0.5869;
-92.1000;0.6357;0.5869;
-91.8000;0.6341;0.5869;
-91.5000;0.6341;0.5869;
-91.2000;0.6357;0.5894;
-90.9000;0.6341;0.5920;
-90.6000;0.6333;0.5869;
-90.3000;0.6333;0.5844;
-90.0000;0.6341;0.5894;
-89.7000;0.6333;0.5869;
-89.4000;0.6300;0.5844;
-89.1000;0.6325;0.5844;
-88.8000;0.6341;0.5844;
-88.5000;0.6341;0.5844;
-88.2000;0.6341;0.5794;
-87.9000;0.6365;0.5819;
-87.6000;0.6333;0.5668;
-87.3000;0.6341;0.5743;
-87.0000;0.6341;0.5743;
-86.7000;0.6317;0.5668;
-86.4000;0.6325;0.5693;
-86.1000;0.6333;0.5668;
-85.8000;0.6349;0.5718;
-85.5000;0.6292;0.5693;
-85.2000;0.6333;0.5869;
-84.9000;0.6325;0.5794;
-84.6000;0.6292;0.5643;
-84.3000;0.6333;0.5743;
-84.0000;0.6374;0.5794;
-83.7000;0.6325;0.5693;
-83.4000;0.6349;0.5769;
-83.1000;0.6357;0.5743;
-82.8000;0.6365;0.5693;
-82.5000;0.6357;0.5693;
-82.2000;0.6341;0.5743;
-81.9000;0.6341;0.5743;
-81.6000;0.6341;0.5718;
-81.3000;0.6349;0.5693;
-81.0000;0.6333;0.5542;
-80.7000;0.6357;0.5567;
-80.4000;0.6341;0.5491;
-80.1000;0.6333;0.5517;
-79.8000;0.6341;0.5617;
-79.5000;0.6414;0.5794;
-79.2000;0.6349;0.5617;
-78.9000;0.6341;0.5592;
-78.6000;0.6309;0.5466;
-78.3000;0.6349;0.5567;
-78.0000;0.6349;0.5542;
-77.7000;0.6374;0.5668;
-77.4000;0.6317;0.5567;
-77.1000;0.6317;0.5517;
-76.8000;0.6357;0.5668;
-76.5000;0.6292;0.5542;
-76.2000;0.6341;0.5668;
-75.9000;0.6341;0.5617;
-75.6000;0.6341;0.5617;
-75.3000;0.6341;0.5643;
-75.0000;0.6333;0.5592;
-74.7000;0.6309;0.5592;
-74.4000;0.6357;0.5693;
-74.1000;0.6341;0.5693;
-73.8000;0.6341;0.5769;
-73.5000;0.6333;0.5844;
-73.2000;0.6357;0.5869;
-72.9000;0.6333;0.5844;
-72.6000;0.6341;0.5869;
-72.3000;0.6349;0.5819;
-72.0000;0.6357;0.5894;
-71.7000;0.6365;0.5869;
-71.4000;0.6317;0.5769;
-71.1000;0.6341;0.5920;
-70.8000;0.6325;0.5869;
-70.5000;0.6341;0.5819;
-70.2000;0.6341;0.5693;
-69.9000;0.6365;0.5819;
-69.6000;0.6349;0.5743;
-69.3000;0.6374;0.5844;
-69.0000;0.6341;0.5794;
-68.7000;0.6349;0.5819;
-68.4000;0.6349;0.5769;
-68.1000;0.6349;0.5718;
-67.8000;0.6357;0.5693;
-67.5000;0.6357;0.5769;
-67.2000;0.6365;0.5819;
-66.9000;0.6349;0.5743;
-66.6000;0.6341;0.5718;
-66.3000;0.6349;0.5743;
-66.0000;0.6349;0.5693;
-65.7000;0.6325;0.5743;
-65.4000;0.6349;0.5869;
-65.1000;0.6357;0.5794;
-64.8000;0.6341;0.5794;
-64.5000;0.6349;0.5743;
-64.2000;0.6333;0.5643;
-63.9000;0.6341;0.5617;
-63.6000;0.6317;0.5643;
-63.3000;0.6349;0.5693;
-63.0000;0.6341;0.5643;
-62.7000;0.6341;0.5668;
-62.4000;0.6341;0.5718;
-62.1000;0.6317;0.5668;
-61.8000;0.6325;0.5743;
-61.5000;0.6341;0.5718;
-61.2000;0.6325;0.5718;
-60.9000;0.6333;0.5769;
-60.6000;0.6292;0.5592;
-60.3000;0.6333;0.5743;
-60.0000;0.6333;0.5769;
-59.7000;0.6333;0.5718;
-59.4000;0.6325;0.5693;
-59.1000;0.6333;0.5693;
-58.8000;0.6333;0.5668;
-58.5000;0.6333;0.5617;
-58.2000;0.6349;0.5718;
-57.9000;0.6349;0.5769;
-57.6000;0.6357;0.5869;
-57.3000;0.6349;0.5794;
-57.0000;0.6349;0.5718;
-56.7000;0.6333;0.5617;
-56.4000;0.6374;0.5794;
-56.1000;0.6357;0.5718;
-55.8000;0.6341;0.5668;
-55.5000;0.6349;0.5668;
-55.2000;0.6349;0.5693;
-54.9000;0.6341;0.5668;
-54.6000;0.6333;0.5643;
-54.3000;0.6325;0.5617;
-54.0000;0.6325;0.5643;
-53.7000;0.6382;0.5769;
-53.4000;0.6390;0.5769;
-53.1000;0.6211;0.5290;
-52.8000;0.6333;0.5643;
-52.5000;0.6341;0.5668;
-52.2000;0.6341;0.5693;
-51.9000;0.6333;0.5643;
-51.6000;0.6333;0.5693;
-51.3000;0.6390;0.5769;
-51.0000;0.6357;0.5743;
-50.7000;0.6349;0.5668;
-50.4000;0.6341;0.5668;
-50.1000;0.6317;0.5668;
-49.8000;0.6357;0.5769;
-49.5000;0.6333;0.5718;
-49.2000;0.6333;0.5693;
-48.9000;0.6341;0.5769;
-48.6000;0.6357;0.5718;
-48.3000;0.6349;0.5718;
-48.0000;0.6325;0.5693;
-47.7000;0.6341;0.5844;
-47.4000;0.6357;0.5920;
-47.1000;0.6431;0.6146;
-46.8000;0.6325;0.5894;
-46.5000;0.6365;0.5894;
-46.2000;0.6357;0.5995;
-45.9000;0.6365;0.6020;
-45.6000;0.6357;0.5920;
-45.3000;0.6349;0.5869;
-45.0000;0.6341;0.5894;
-44.7000;0.6333;0.5794;
-44.4000;0.6341;0.5769;
-44.1000;0.6284;0.5567;
-43.8000;0.6365;0.5769;
-43.5000;0.6341;0.5794;
-43.2000;0.6463;0.6146;
-42.9000;0.6292;0.5668;
-42.6000;0.6341;0.5794;
-42.3000;0.6341;0.5819;
-42.0000;0.6309;0.5718;
-41.7000;0.6341;0.5819;
-41.4000;0.6341;0.5819;
-41.1000;0.6357;0.5894;
-40.8000;0.6349;0.5869;
-40.5000;0.6333;0.5844;
-40.2000;0.6325;0.5718;
-39.9000;0.6333;0.5769;
-39.6000;0.6341;0.5743;
-39.3000;0.6325;0.5743;
-39.0000;0.6325;0.5844;
-38.7000;0.6341;0.5920;
-38.4000;0.6300;0.5794;
-38.1000;0.6406;0.6046;
-37.8000;0.6341;0.5844;
-37.5000;0.6349;0.5794;
-37.2000;0.6333;0.5769;
-36.9000;0.6341;0.5693;
-36.6000;0.6374;0.5743;
-36.3000;0.6357;0.5668;
-36.0000;0.6414;0.5920;
-35.7000;0.6374;0.5844;
-35.4000;0.6325;0.5769;
-35.1000;0.6325;0.5743;
-34.8000;0.6357;0.5668;
-34.5000;0.6349;0.5668;
-34.2000;0.6349;0.5743;
-33.9000;0.6317;0.5617;
-33.6000;0.6325;0.5668;
-33.3000;0.6349;0.5567;
-33.0000;0.6341;0.5542;
-32.7000;0.6333;0.5517;
-32.4000;0.6349;0.5491;
-32.1000;0.6365;0.5491;
-31.8000;0.6333;0.5391;
-31.5000;0.6341;0.5365;
-31.2000;0.6349;0.5391;
-30.9000;0.6333;0.5391;
-30.6000;0.6325;0.5391;
-30.3000;0.6349;0.5491;
-30.0000;0.6341;0.5466;
-29.7000;0.6349;0.5466;
-29.4000;0.6333;0.5441;
-29.1000;0.6341;0.5441;
-28.8000;0.6333;0.5441;
-28.5000;0.6235;0.5114;
-28.2000;0.6365;0.5441;
-27.9000;0.6349;0.5517;
-27.6000;0.6357;0.5617;
-27.3000;0.6349;0.5668;
-27.0000;0.6333;0.5592;
-26.7000;0.6349;0.5592;
-26.4000;0.6365;0.5693;
-26.1000;0.6333;0.5668;
-25.8000;0.6349;0.5743;
-25.5000;0.6349;0.5794;
-25.2000;0.6333;0.5743;
-24.9000;0.6349;0.5769;
-24.6000;0.6333;0.5643;
-24.3000;0.6349;0.5567;
-24.0000;0.6341;0.5491;
-23.7000;0.6333;0.5491;
-23.4000;0.6341;0.5441;
-23.1000;0.6341;0.5441;
-22.8000;0.6333;0.5491;
-22.5000;0.6333;0.5391;
-22.2000;0.6349;0.5365;
-21.9000;0.6357;0.5416;
-21.6000;0.6341;0.5466;
-21.3000;0.6357;0.5466;
-21.0000;0.6317;0.5391;
-20.7000;0.6349;0.5441;
-20.4000;0.6341;0.5416;
-20.1000;0.6333;0.5391;
-19.8000;0.6317;0.5416;
-19.5000;0.6341;0.5542;
-19.2000;0.6268;0.5340;
-18.9000;0.6349;0.5466;
-18.6000;0.6357;0.5491;
-18.3000;0.6333;0.5542;
-18.0000;0.6325;0.5542;
-17.7000;0.6357;0.5567;
-17.4000;0.6333;0.5416;
-17.1000;0.6333;0.5466;
-16.8000;0.6349;0.5491;
-16.5000;0.6349;0.5466;
-16.2000;0.6349;0.5466;
-15.9000;0.6390;0.5617;
-15.6000;0.6365;0.5491;
-15.3000;0.6357;0.5491;
-15.0000;0.6349;0.5441;
-14.7000;0.6341;0.5365;
-14.4000;0.6382;0.5567;
-14.1000;0.6349;0.5592;
-13.8000;0.6349;0.5592;
-13.5000;0.6349;0.5643;
-13.2000;0.6333;0.5643;
-12.9000;0.6357;0.5592;
-12.6000;0.6357;0.5643;
-12.3000;0.6357;0.5617;
-12.0000;0.6333;0.5643;
-11.7000;0.6349;0.5617;
-11.4000;0.6382;0.5743;
-11.1000;0.6341;0.5517;
-10.8000;0.6357;0.5567;
-10.5000;0.6333;0.5517;
-10.2000;0.6349;0.5542;
-9.9000;0.6300;0.5491;
-9.6000;0.6325;0.5617;
-9.3000;0.6325;0.5592;
-9.0000;0.6357;0.5743;
-8.7000;0.6422;0.5920;
-8.4000;0.6325;0.5718;
-8.1000;0.6325;0.5617;
-7.8000;0.6333;0.5643;
-7.5000;0.6325;0.5643;
-7.2000;0.6333;0.5643;
-6.9000;0.6341;0.5643;
-6.6000;0.6325;0.5592;
-6.3000;0.6325;0.5592;
-6.0000;0.6341;0.5617;
-5.7000;0.6390;0.5769;
-5.4000;0.6422;0.5869;
-5.1000;0.6349;0.5743;
-4.8000;0.6357;0.5769;
-4.5000;0.6357;0.5894;
-4.2000;0.6349;0.5819;
-3.9000;0.6349;0.5794;
-3.6000;0.6317;0.5718;
-3.3000;0.6325;0.5743;
-3.0000;0.6341;0.5718;
-2.7000;0.6341;0.5668;
-2.4000;0.6357;0.5743;
-2.1000;0.6349;0.5794;
-1.8000;0.6349;0.5769;
-1.5000;0.6349;0.5743;
-1.2000;0.6309;0.5592;
-0.9000;0.6325;0.5643;
-0.6000;0.6349;0.5668;
-0.3000;0.6374;0.5668;
0.0000;0.6374;0.5668;
0.3000;0.6642;0.5592;
0.6000;0.7188;0.6247;
0.9000;0.7643;0.6726;
1.2000;0.7985;0.7230;
1.5000;0.8246;0.7557;
1.8000;0.8457;0.7859;
2.1000;0.8620;0.8086;
2.4000;0.8751;0.8288;
2.7000;0.8840;0.8338;
3.0000;0.8970;0.8590;
3.3000;0.8995;0.8640;
3.6000;0.9076;0.8691;
3.9000;0.9174;0.8867;
4.2000;0.9214;0.8816;
4.5000;0.9271;0.8867;
4.8000;0.9345;0.8942;
5.1000;0.9377;0.8968;
5.4000;0.9434;0.9043;
5.7000;0.9459;0.9018;
6.0000;0.9524;0.9043;
6.3000;0.9548;0.9194;
6.6000;0.9589;0.9270;
6.9000;0.9621;0.9270;
7.2000;0.9687;0.9345;
7.5000;0.9735;0.9320;
7.8000;0.9760;0.9345;
8.1000;0.9809;0.9396;
8.4000;0.9833;0.9320;
8.7000;0.9882;0.9295;
9.0000;0.9898;0.9345;
9.3000;0.9931;0.9295;
9.6000;0.9955;0.9320;
9.9000;0.9988;0.9295;
10.2000;1.0004;0.9320;
10.5000;1.0061;0.9320;
10.8000;1.0094;0.9371;
11.1000;1.0175;0.9497;
11.4000;1.0142;0.9396;
11.7000;1.0167;0.9320;
12.0000;1.0191;0.9345;
12.3000;1.0216;0.9345;
12.6000;1.0191;0.9169;
12.9000;1.0297;0.9396;
13.2000;1.0305;0.9345;
13.5000;1.0370;0.9421;
13.8000;1.0362;0.9446;
14.1000;1.0395;0.9497;
14.4000;1.0452;0.9623;
14.7000;1.0444;0.9572;
15.0000;1.0468;0.9396;
15.3000;1.0476;0.9345;
15.6000;1.0549;0.9446;
15.9000;1.0533;0.9320;
16.2000;1.0558;0.9295;
16.5000;1.0574;0.9220;
16.8000;1.0590;0.9270;
17.1000;1.0606;0.9245;
17.4000;1.0631;0.9220;
17.7000;1.0639;0.9345;
18.0000;1.0672;0.9371;
18.3000;1.0704;0.9345;
18.6000;1.0688;0.9295;
18.9000;1.0737;0.9446;
19.2000;1.0761;0.9421;
19.5000;1.0745;0.9421;
19.8000;1.0769;0.9471;
20.1000;1.0802;0.9421;
20.4000;1.0818;0.9345;
20.7000;1.0818;0.9371;
21.0000;1.0834;0.9396;
21.3000;1.0851;0.9396;
21.6000;1.0867;0.9421;
21.9000;1.0883;0.9471;
22.2000;1.0891;0.9471;
22.5000;1.0932;0.9572;
22.8000;1.0948;0.9497;
23.1000;1.0940;0.9396;
23.4000;1.0973;0.9371;
23.7000;1.0973;0.9169;
24.0000;1.0997;0.9194;
24.3000;1.1005;0.9220;
24.6000;1.1005;0.9194;
24.9000;1.1030;0.9194;
25.2000;1.1062;0.9320;
25.5000;1.1062;0.9295;
25.8000;1.1054;0.9169;
26.1000;1.1046;0.9144;
26.4000;1.1062;0.9144;
26.7000;1.1095;0.9169;
27.0000;1.1087;0.9220;
27.3000;1.1087;0.9169;
27.6000;1.1103;0.9245;
27.9000;1.1201;0.9446;
28.2000;1.1119;0.9169;
28.5000;1.1144;0.9119;
28.8000;1.1127;0.9068;
29.1000;1.1152;0.9119;
29.4000;1.1144;0.9169;
29.7000;1.1168;0.9245;
30.0000;1.1160;0.9169;
30.3000;1.1193;0.9270;
30.6000;1.1201;0.9220;
30.9000;1.1209;0.9220;
31.2000;1.1201;0.9220;
31.5000;1.1217;0.9220;
31.8000;1.1209;0.9169;
32.1000;1.1209;0.9194;
32.4000;1.1184;0.9018;
32.7000;1.1225;0.9043;
33.0000;1.1233;0.9068;
33.3000;1.1274;0.9119;
33.6000;1.1266;0.9169;
33.9000;1.1266;0.9245;
34.2000;1.1274;0.9320;
34.5000;1.1290;0.9345;
34.8000;1.1290;0.9270;
35.1000;1.1290;0.9270;
35.4000;1.1298;0.9371;
35.7000;1.1298;0.9295;
36.0000;1.1306;0.9270;
36.3000;1.1306;0.9295;
36.6000;1.1372;0.9396;
36.9000;1.1331;0.9295;
37.2000;1.1323;0.9194;
37.5000;1.1323;0.9169;
37.8000;1.1315;0.9119;
38.1000;1.1315;0.9144;
38.4000;1.1315;0.9068;
38.7000;1.1315;0.8993;
39.0000;1.1347;0.9043;
39.3000;1.1396;0.9245;
39.6000;1.1339;0.9119;
39.9000;1.1355;0.9119;
40.2000;1.1363;0.9194;
40.5000;1.1372;0.9320;
40.8000;1.1372;0.9396;
41.1000;1.1372;0.9345;
41.4000;1.1388;0.9371;
41.7000;1.1355;0.9295;
42.0000;1.1372;0.9194;
42.3000;1.1380;0.9169;
42.6000;1.1380;0.9169;
42.9000;1.1355;0.9043;
43.2000;1.1396;0.9119;
43.5000;1.1404;0.9094;
43.8000;1.1388;0.9169;
44.1000;1.1380;0.9144;
44.4000;1.1404;0.9144;
44.7000;1.1396;0.9194;
45.0000;1.1412;0.9295;
45.3000;1.1429;0.9194;
45.6000;1.1420;0.9270;
45.9000;1.1429;0.9270;
46.2000;1.1437;0.9345;
46.5000;1.1429;0.9144;
46.8000;1.1429;0.9094;
47.1000;1.1404;0.9043;
47.4000;1.1445;0.9043;
47.7000;1.1429;0.9018;
48.0000;1.1437;0.8993;
48.3000;1.1437;0.8993;
48.6000;1.1445;0.9068;
48.9000;1.1429;0.9094;
49.2000;1.1412;0.8942;
49.5000;1.1453;0.9068;
49.8000;1.1445;0.9043;
50.1000;1.1453;0.9018;
50.4000;1.1461;0.9043;
50.7000;1.1461;0.9068;
51.0000;1.1477;0.9144;
51.3000;1.1461;0.9068;
51.6000;1.1477;0.9094;
51.9000;1.1445;0.9068;
52.2000;1.1469;0.9043;
52.5000;1.1461;0.9018;
52.8000;1.1477;0.9018;
53.1000;1.1477;0.9043;
53.4000;1.1477;0.9144;
53.7000;1.1477;0.9094;
54.0000;1.1494;0.9169;
54.3000;1.1469;0.9068;
54.6000;1.1494;0.9094;
54.9000;1.1502;0.8993;
55.2000;1.1477;0.8917;
55.5000;1.1534;0.8917;
55.8000;1.1502;0.8867;
56.1000;1.1518;0.8842;
56.4000;1.1469;0.8716;
56.7000;1.1510;0.8867;
57.0000;1.1510;0.8942;
57.3000;1.1494;0.8968;
57.6000;1.1494;0.8968;
57.9000;1.1477;0.8892;
58.2000;1.1510;0.8993;
58.5000;1.1526;0.8968;
58.8000;1.1494;0.9018;
59.1000;1.1494;0.8993;
59.4000;1.1510;0.8993;
59.7000;1.1494;0.8917;
60.0000;1.1518;0.8917;
60.3000;1.1600;0.9043;
60.6000;1.1510;0.8816;
60.9000;1.1543;0.8942;
61.2000;1.1575;0.9094;
61.5000;1.1559;0.8993;
61.8000;1.1551;0.8993;
62.1000;1.1534;0.8917;
62.4000;1.1526;0.8942;
62.7000;1.1559;0.9018;
63.0000;1.1526;0.8968;
63.3000;1.1526;0.9043;
63.6000;1.1534;0.9094;
63.9000;1.1526;0.9068;
64.2000;1.1551;0.9119;
64.5000;1.1567;0.9169;
64.8000;1.1551;0.9094;
65.1000;1.1559;0.9094;
65.4000;1.1543;0.9043;
65.7000;1.1551;0.9043;
66.0000;1.1559;0.9043;
66.3000;1.1559;0.9119;
66.6000;1.1583;0.9144;
66.9000;1.1526;0.8993;
67.2000;1.1551;0.9043;
67.5000;1.1559;0.8993;
67.8000;1.1583;0.9043;
68.1000;1.1559;0.8993;
68.4000;1.1567;0.9119;
68.7000;1.1551;0.9043;
69.0000;1.1551;0.9043;
69.3000;1.1559;0.8942;
69.6000;1.1575;0.8993;
69.9000;1.1640;0.9043;
70.2000;1.1559;0.8816;
70.5000;1.1559;0.8892;
70.8000;1.1591;0.9068;
71.1000;1.1551;0.9018;
71.4000;1.1559;0.9043;
71.7000;1.1534;0.9018;
72.0000;1.1567;0.8968;
72.3000;1.1559;0.9043;
72.6000;1.1575;0.9169;
72.9000;1.1567;0.9295;
73.2000;1.1575;0.9295;
73.5000;1.1559;0.9194;
73.8000;1.1583;0.9194;
74.1000;1.1575;0.9119;
74.4000;1.1583;0.9169;
74.7000;1.1583;0.9068;
75.0000;1.1583;0.9018;
75.3000;1.1591;0.9043;
75.6000;1.1575;0.9068;
75.9000;1.1559;0.8993;
76.2000;1.1526;0.8942;
76.5000;1.1591;0.9068;
76.8000;1.1583;0.9094;
77.1000;1.1567;0.9119;
77.4000;1.1567;0.9094;
77.7000;1.1583;0.9043;
78.0000;1.1600;0.9018;
78.3000;1.1583;0.8917;
78.6000;1.1583;0.8917;
78.9000;1.1583;0.8892;
79.2000;1.1583;0.8842;
79.5000;1.1575;0.8842;
79.8000;1.1559;0.8842;
80.1000;1.1591;0.8867;
80.4000;1.1559;0.8816;
80.7000;1.1591;0.8867;
81.0000;1.1583;0.8791;
81.3000;1.1608;0.8842;
81.6000;1.1575;0.8766;
81.9000;1.1543;0.8640;
82.2000;1.1575;0.8741;
82.5000;1.1600;0.8791;
82.8000;1.1583;0.8665;
83.1000;1.1600;0.8716;
83.4000;1.1600;0.8665;
83.7000;1.1591;0.8766;
84.0000;1.1600;0.8791;
84.3000;1.1551;0.8741;
84.6000;1.1591;0.8791;
84.9000;1.1624;0.8816;
85.2000;1.1600;0.8791;
85.5000;1.1632;0.8917;
85.8000;1.1591;0.8842;
86.1000;1.1600;0.8842;
86.4000;1.1624;0.8842;
86.7000;1.1632;0.8917;
87.0000;1.1616;0.8917;
87.3000;1.1624;0.8917;
87.6000;1.1600;0.8867;
87.9000;1.1600;0.8917;
88.2000;1.1624;0.8867;
88.5000;1.1648;0.8917;
88.8000;1.1591;0.8842;
89.1000;1.1624;0.8968;
89.4000;1.1624;0.8993;
89.7000;1.1583;0.8917;
90.0000;1.1608;0.8993;
90.3000;1.1624;0.8993;
90.6000;1.1624;0.8968;
90.9000;1.1632;0.8867;
91.2000;1.1608;0.8791;
91.5000;1.1616;0.8867;
91.8000;1.1600;0.8791;
92.1000;1.1681;0.9018;
92.4000;1.1567;0.8791;
92.7000;1.1632;0.8968;
93.0000;1.1608;0.8842;
93.3000;1.1616;0.8791;
93.6000;1.1624;0.8716;
93.9000;1.1608;0.8716;
94.2000;1.1616;0.8741;
94.5000;1.1600;0.8741;
94.8000;1.1616;0.8791;
95.1000;1.1608;0.8842;
95.4000;1.1616;0.8867;
95.7000;1.1559;0.8741;
96.0000;1.1632;0.8892;
96.3000;1.1624;0.8917;
96.6000;1.1713;0.9144;
96.9000;1.1640;0.8942;
97.2000;1.1640;0.8993;
97.5000;1.1616;0.8917;
97.8000;1.1624;0.8968;
98.1000;1.1632;0.9068;
98.4000;1.1624;0.9018;
98.7000;1.1624;0.9018;
99.0000;1.1600;0.8942;
99.3000;1.1616;0.8892;
99.6000;1.1632;0.8968;
99.9000;1.1616;0.8917;
100.2000;1.1608;0.8917;
100.5000;1.1616;0.9043;
100.8000;1.1624;0.9068;
101.1000;1.1624;0.9068;
101.4000;1.1591;0.8942;
101.7000;1.1640;0.9068;
102.0000;1.1616;0.9043;
102.3000;1.1632;0.8993;
102.6000;1.1608;0.8917;
102.9000;1.1640;0.9043;
103.2000;1.1640;0.8993;
103.5000;1.1689;0.9119;
103.8000;1.1640;0.8968;
104.1000;1.1608;0.8842;
104.4000;1.1624;0.8892;
104.7000;1.1608;0.8842;
105.0000;1.1632;0.8842;
105.3000;1.1591;0.8716;
105.6000;1.1640;0.8842;
105.9000;1.1656;0.8816;
106.2000;1.1640;0.8741;
106.5000;1.1648;0.8816;
106.8000;1.1632;0.8816;
107.1000;1.1656;0.8942;
107.4000;1.1616;0.8917;
107.7000;1.1640;0.9018;
108.0000;1.1648;0.9094;
108.3000;1.1673;0.9068;
108.6000;1.1624;0.8917;
108.9000;1.1665;0.9018;
109.2000;1.1689;0.9043;
109.5000;1.1697;0.9068;
109.8000;1.1624;0.8842;
110.1000;1.1640;0.8791;
110.4000;1.1608;0.8665;
110.7000;1.1632;0.8816;
111.0000;1.1665;0.8842;
111.3000;1.1616;0.8716;
111.6000;1.1648;0.8741;
111.9000;1.1656;0.8791;
112.2000;1.1665;0.8791;
112.5000;1.1656;0.8867;
112.8000;1.1648;0.8816;
113.1000;1.1648;0.8816;
113.4000;1.1656;0.8867;
113.7000;1.1640;0.8892;
114.0000;1.1648;0.8917;
114.3000;1.1640;0.8867;
114.6000;1.1656;0.8968;
114.9000;1.1648;0.8892;
115.2000;1.1640;0.8842;
115.5000;1.1624;0.8842;
115.8000;1.1656;0.8892;
116.1000;1.1632;0.8867;
116.4000;1.1648;0.8842;
116.7000;1.1648;0.8766;
117.0000;1.1648;0.8867;
117.3000;1.1656;0.8842;
117.6000;1.1648;0.8816;
117.9000;1.1648;0.8741;
118.2000;1.1640;0.8791;
118.5000;1.1656;0.8892;
118.8000;1.1648;0.8917;
119.1000;1.1648;0.8942;
119.4000;1.1640;0.8968;
119.7000;1.1665;0.8968;
120.0000;1.1656;0.8917;
120.3000;1.1656;0.8791;
120.6000;1.1624;0.8766;
120.9000;1.1648;0.8842;
121.2000;1.1648;0.8791;
121.5000;1.1624;0.8716;
121.8000;1.1632;0.8791;
122.1000;1.1608;0.8741;
122.4000;1.1632;0.8842;
122.7000;1.1648;0.8791;
123.0000;1.1640;0.8791;
123.3000;1.1665;0.8816;
123.6000;1.1656;0.8867;
123.9000;1.1640;0.8842;
124.2000;1.1665;0.8942;
124.5000;1.1648;0.8892;
124.8000;1.1656;0.8816;
125.1000;1.1673;0.8816;
125.4000;1.1648;0.8791;
125.7000;1.1632;0.8716;
126.0000;1.1665;0.8716;
126.3000;1.1632;0.8640;
126.6000;1.1648;0.8665;
126.9000;1.1648;0.8665;
127.2000;1.1665;0.8691;
127.5000;1.1665;0.8665;
127.8000;1.1713;0.8842;
128.1000;1.1632;0.8691;
128.4000;1.1656;0.8741;
128.7000;1.1673;0.8867;
129.0000;1.1665;0.8842;
129.3000;1.1648;0.8741;
129.6000;1.1656;0.8691;
129.9000;1.1673;0.8665;
130.2000;1.1689;0.8741;
130.5000;1.1656;0.8766;
130.8000;1.1648;0.8867;
131.1000;1.1665;0.8942;
131.4000;1.1656;0.8867;
131.7000;1.1648;0.8791;
132.0000;1.1673;0.8791;
132.3000;1.1665;0.8741;
132.6000;1.1673;0.8640;
132.9000;1.1665;0.8590;
133.2000;1.1665;0.8640;
133.5000;1.1673;0.8766;
133.8000;1.1665;0.8741;
134.1000;1.1665;0.8816;
134.4000;1.1616;0.8741;
134.7000;1.1746;0.9094;
135.0000;1.1665;0.8892;
135.3000;1.1632;0.8791;
135.6000;1.1648;0.8892;
135.9000;1.1665;0.8917;
136.2000;1.1656;0.8917;
136.5000;1.1665;0.8942;
136.8000;1.1665;0.8892;
137.1000;1.1665;0.8842;
137.4000;1.1665;0.8816;
137.7000;1.1656;0.8791;
138.0000;1.1648;0.8766;
138.3000;1.1656;0.8741;
138.6000;1.1665;0.8691;
138.9000;1.1656;0.8791;
139.2000;1.1673;0.8968;
139.5000;1.1656;0.8942;
139.8000;1.1673;0.8968;
140.1000;1.1656;0.8942;
140.4000;1.1665;0.8942;
140.7000;1.1673;0.8968;
141.0000;1.1656;0.8942;
141.3000;1.1656;0.8892;
141.6000;1.1656;0.8842;
141.9000;1.1665;0.8766;
142.2000;1.1640;0.8741;
142.5000;1.1665;0.8766;
142.8000;1.1673;0.8816;
143.1000;1.1665;0.8816;
143.4000;1.1689;0.8791;
143.7000;1.1665;0.8766;
144.0000;1.1673;0.8741;
144.3000;1.1673;0.8716;
144.6000;1.1665;0.8741;
144.9000;1.1673;0.8741;
145.2000;1.1681;0.8842;
145.5000;1.1656;0.8716;
145.8000;1.1673;0.8741;
146.1000;1.1665;0.8741;
146.4000;1.1673;0.8842;
146.7000;1.1673;0.8716;
147.0000;1.1673;0.8741;
147.3000;1.1656;0.8741;
147.6000;1.1689;0.8842;
147.9000;1.1681;0.8842;
148.2000;1.1665;0.8867;
148.5000;1.1689;0.8867;
148.8000;1.1648;0.8842;
149.1000;1.1665;0.8842;
149.4000;1.1656;0.8791;
149.7000;1.1648;0.8716;
150.0000;1.1656;0.8791;
150.3000;1.1673;0.8867;
150.6000;1.1665;0.8917;
150.9000;1.1656;0.8892;
151.2000;1.1648;0.8867;
151.5000;1.1665;0.8968;
151.8000;1.1681;0.8942;
152.1000;1.1681;0.8993;
152.4000;1.1665;0.8942;
152.7000;1.1648;0.8867;
153.0000;1.1673;0.8917;
153.3000;1.1665;0.8816;
153.6000;1.1673;0.8741;
153.9000;1.1673;0.8766;
154.2000;1.1681;0.8816;
154.5000;1.1665;0.8791;
154.8000;1.1656;0.8791;
155.1000;1.1648;0.8741;
155.4000;1.1665;0.8741;
155.7000;1.1656;0.8716;
156.0000;1.1665;0.8766;
156.3000;1.1656;0.8791;
156.6000;1.1656;0.8816;
156.9000;1.1673;0.8766;
157.2000;1.1681;0.8766;
157.5000;1.1697;0.8741;
157.8000;1.1648;0.8640;
158.1000;1.1681;0.8716;
158.4000;1.1673;0.8741;
158.7000;1.1665;0.8691;
159.0000;1.1656;0.8691;
159.3000;1.1681;0.8691;
159.6000;1.1648;0.8665;
159.9000;1.1656;0.8691;
160.2000;1.1648;0.8741;
160.5000;1.1591;0.8565;
160.8000;1.1656;0.8766;
161.1000;1.1665;0.8766;
161.4000;1.1648;0.8892;
161.7000;1.1656;0.8917;
162.0000;1.1656;0.8867;
162.3000;1.1648;0.8892;
162.6000;1.1673;0.8917;
162.9000;1.1681;0.8917;
163.2000;1.1689;0.8892;
163.5000;1.1681;0.8842;
163.8000;1.1673;0.8791;
164.1000;1.1681;0.8766;
164.4000;1.1681;0.8816;
164.7000;1.1681;0.8816;
165.0000;1.1673;0.8741;
165.3000;1.1665;0.8791;
165.6000;1.1681;0.8892;
165.9000;1.1697;0.8867;
166.2000;1.1673;0.8867;
166.5000;1.1681;0.8892;
166.8000;1.1697;0.8942;
167.1000;1.1640;0.8791;
167.4000;1.1697;0.8892;
167.7000;1.1673;0.8867;
168.0000;1.1673;0.8917;
168.3000;1.1673;0.8892;
168.6000;1.1673;0.8917;
168.9000;1.1673;0.8892;
169.2000;1.1665;0.8917;
169.5000;1.1673;0.8867;
169.8000;1.1681;0.8842;
170.1000;1.1656;0.8791;
170.4000;1.1648;0.8917;
170.7000;1.1681;0.8942;
171.0000;1.1681;0.8917;
171.3000;1.1640;0.8842;
171.6000;1.1665;0.8842;
171.9000;1.1673;0.8842;
172.2000;1.1673;0.8741;
172.5000;1.1656;0.8716;
172.8000;1.1665;0.8741;
173.1000;1.1656;0.8741;
173.4000;1.1681;0.8716;
173.7000;1.1689;0.8716;
174.0000;1.1632;0.8691;
174.3000;1.1665;0.8741;
174.6000;1.1656;0.8741;
174.9000;1.1681;0.8691;
175.2000;1.1673;0.8716;
175.5000;1.1665;0.8665;
175.8000;1.1673;0.8691;
176.1000;1.1673;0.8665;
176.4000;1.1673;0.8691;
176.7000;1.1673;0.8716;
177.0000;1.1673;0.8716;
177.3000;1.1681;0.8892;
177.6000;1.1697;0.8892;
177.9000;1.1665;0.8816;
178.2000;1.1665;0.8816;
178.5000;1.1673;0.8716;
178.8000;1.1665;0.8691;
179.1000;1.1681;0.8716;
179.4000;1.1665;0.8665;
179.7000;1.1689;0.8741;
180.0000;1.1673;0.8665;
180.3000;1.1665;0.8691;
180.6000;1.1681;0.8716;
180.9000;1.1673;0.8590;
181.2000;1.1673;0.8615;
181.5000;1.1632;0.8489;
181.8000;1.1665;0.8615;
182.1000;1.1673;0.8665;
182.4000;1.1665;0.8741;
182.7000;1.1665;0.8766;
183.0000;1.1648;0.8741;
183.3000;1.1648;0.8741;
183.6000;1.1656;0.8791;
183.9000;1.1689;0.8892;
184.2000;1.1656;0.8741;
184.5000;1.1648;0.8691;
184.8000;1.1681;0.8791;
185.1000;1.1673;0.8766;
185.4000;1.1673;0.8766;
185.7000;1.1648;0.8766;
186.0000;1.1673;0.8766;
186.3000;1.1673;0.8716;
186.6000;1.1673;0.8791;
186.9000;1.1673;0.8842;
187.2000;1.1665;0.8791;
187.5000;1.1681;0.8791;
187.8000;1.1673;0.8766;
188.1000;1.1689;0.8791;
188.4000;1.1665;0.8791;
188.7000;1.1673;0.8816;
189.0000;1.1665;0.8741;
189.3000;1.1681;0.8842;
189.6000;1.1673;0.8917;
189.9000;1.1681;0.8892;
190.2000;1.1673;0.8917;
190.5000;1.1656;0.8942;
190.8000;1.1656;0.8892;
191.1000;1.1656;0.8917;
191.4000;1.1665;0.8917;
191.7000;1.1624;0.8791;
192.0000;1.1673;0.8867;
192.3000;1.1681;0.8867;
192.6000;1.1697;0.8917;
192.9000;1.1673;0.8867;
193.2000;1.1673;0.8842;
193.5000;1.1705;0.8867;
193.8000;1.1681;0.8766;
194.1000;1.1689;0.8766;
194.4000;1.1705;0.8816;
194.7000;1.1665;0.8791;
195.0000;1.1673;0.8892;
195.3000;1.1681;0.8842;
195.6000;1.1656;0.8766;
195.9000;1.1656;0.8665;
196.2000;1.1648;0.8691;
196.5000;1.1665;0.8766;
196.8000;1.1665;0.8766;
197.1000;1.1705;0.8892;
197.4000;1.1665;0.8842;
197.7000;1.1673;0.8867;
198.0000;1.1681;0.8917;
198.3000;1.1656;0.8842;
198.6000;1.1648;0.8842;
198.9000;1.1665;0.8942;
199.2000;1.1608;0.8766;
199.5000;1.1673;0.8993;
199.8000;1.1689;0.9043;
200.1000;1.1681;0.8917;
200.4000;1.1632;0.8842;
200.7000;1.1656;0.8917;
201.0000;1.1673;0.8942;
201.3000;1.1673;0.8942;
201.6000;1.1656;0.8892;
201.9000;1.1673;0.8917;
202.2000;1.1591;0.8741;
202.5000;1.1656;0.8917;
202.8000;1.1681;0.9018;
203.1000;1.1673;0.9068;
203.4000;1.1648;0.9043;
203.7000;1.1648;0.8993;
204.0000;1.1681;0.9018;
204.3000;1.1673;0.9018;
204.6000;1.1648;0.8867;
204.9000;1.1665;0.8867;
205.2000;1.1681;0.8842;
205.5000;1.1673;0.8791;
205.8000;1.1673;0.8766;
206.1000;1.1665;0.8791;
206.4000;1.1673;0.8816;
206.7000;1.1705;0.8968;
207.0000;1.1673;0.8892;
207.3000;1.1673;0.8816;
207.6000;1.1673;0.8791;
207.9000;1.1640;0.8716;
208.2000;1.1673;0.8741;
208.5000;1.1722;0.8917;
208.8000;1.1665;0.8842;
209.1000;1.1689;0.8968;
209.4000;1.1689;0.8942;
209.7000;1.1673;0.8816;
210.0000;1.1673;0.8892;
210.3000;1.1673;0.8917;
210.6000;1.1681;0.8942;
210.9000;1.1656;0.8867;
211.2000;1.1665;0.8892;
211.5000;1.1665;0.8766;
211.8000;1.1689;0.8741;
212.1000;1.1673;0.8590;
212.4000;1.1665;0.8489;
212.7000;1.1673;0.8590;
213.0000;1.1673;0.8640;
213.3000;1.1665;0.8665;
213.6000;1.1681;0.8741;
213.9000;1.1689;0.8741;
214.2000;1.1697;0.8691;
214.5000;1.1681;0.8791;
214.8000;1.1689;0.8766;
215.1000;1.1681;0.8766;
215.4000;1.1673;0.8716;
215.7000;1.1673;0.8716;
216.0000;1.1656;0.8691;
216.3000;1.1673;0.8615;
216.6000;1.1673;0.8716;
216.9000;1.1681;0.8741;
217.2000;1.1681;0.8791;
217.5000;1.1673;0.8791;
217.8000;1.1665;0.8741;
218.1000;1.1656;0.8640;
218.4000;1.1681;0.8665;
218.7000;1.1673;0.8640;
219.0000;1.1681;0.8615;
219.3000;1.1689;0.8665;
219.6000;1.1665;0.8640;
219.9000;1.1681;0.8640;
220.2000;1.1665;0.8615;
220.5000;1.1673;0.8691;
220.8000;1.1689;0.8716;
221.1000;1.1665;0.8665;
221.4000;1.1616;0.8514;
221.7000;1.1665;0.8766;
222.0000;1.1656;0.8766;
222.3000;1.1616;0.8665;
222.6000;1.1673;0.8741;
222.9000;1.1665;0.8691;
223.2000;1.1648;0.8665;
223.5000;1.1665;0.8741;
223.8000;1.1665;0.8741;
224.1000;1.1673;0.8741;
224.4000;1.1673;0.8716;
224.7000;1.1665;0.8615;
225.0000;1.1673;0.8691;
225.3000;1.1722;0.8892;
225.6000;1.1722;0.8842;
225.9000;1.1673;0.8716;
226.2000;1.1681;0.8691;
226.5000;1.1616;0.8514;
226.8000;1.1673;0.8615;
227.1000;1.1665;0.8615;
227.4000;1.1673;0.8615;
227.7000;1.1673;0.8565;
228.0000;1.1665;0.8539;
228.3000;1.1673;0.8615;
228.6000;1.1681;0.8665;
228.9000;1.1665;0.8640;
229.2000;1.1681;0.8716;
229.5000;1.1673;0.8766;
229.8000;1.1689;0.8766;
230.1000;1.1722;0.8766;
230.4000;1.1656;0.8691;
230.7000;1.1673;0.8716;
231.0000;1.1673;0.8741;
231.3000;1.1665;0.8716;
231.6000;1.1665;0.8665;
231.9000;1.1673;0.8640;
232.2000;1.1689;0.8665;
232.5000;1.1665;0.8691;
232.8000;1.1673;0.8741;
233.1000;1.1665;0.8816;
233.4000;1.1665;0.8892;
233.7000;1.1681;0.8842;
234.0000;1.1697;0.8892;
234.3000;1.1689;0.8842;
234.6000;1.1689;0.8892;
234.9000;1.1681;0.8842;
235.2000;1.1673;0.8741;
235.5000;1.1673;0.8741;
235.8000;1.1673;0.8716;
236.1000;1.1673;0.8766;
236.4000;1.1681;0.8716;
236.7000;1.1624;0.8615;
237.0000;1.1665;0.8716;
237.3000;1.1689;0.8791;
237.6000;1.1665;0.8766;
237.9000;1.1665;0.8716;
238.2000;1.1665;0.8640;
238.5000;1.1673;0.8716;
238.8000;1.1640;0.8716;
239.1000;1.1673;0.8716;
239.4000;1.1689;0.8640;
239.7000;1.1681;0.8640;
240.0000;1.1681;0.8615;
240.3000;1.1665;0.8615;
240.6000;1.1665;0.8691;
240.9000;1.1656;0.8640;
241.2000;1.1681;0.8741;
241.5000;1.1689;0.8791;
241.8000;1.1673;0.8791;
242.1000;1.1713;0.8867;
242.4000;1.1713;0.8867;
242.7000;1.1665;0.8716;
243.0000;1.1673;0.8615;
243.3000;1.1673;0.8590;
243.6000;1.1689;0.8590;
243.9000;1.1681;0.8615;
244.2000;1.1673;0.8590;
244.5000;1.1689;0.8691;
244.8000;1.1681;0.8665;
245.1000;1.1673;0.8640;
245.4000;1.1697;0.8665;
245.7000;1.1673;0.8615;
246.0000;1.1681;0.8665;
246.3000;1.1673;0.8691;
246.6000;1.1673;0.8691;
246.9000;1.1665;0.8615;
247.2000;1.1656;0.8665;
247.5000;1.1673;0.8691;
247.8000;1.1648;0.8640;
248.1000;1.1673;0.8615;
248.4000;1.1665;0.8615;
248.7000;1.1689;0.8615;
249.0000;1.1665;0.8665;
249.3000;1.1665;0.8640;
249.6000;1.1673;0.8615;
249.9000;1.1673;0.8565;
250.2000;1.1673;0.8590;
250.5000;1.1648;0.8489;
250.8000;1.1665;0.8539;
251.1000;1.1689;0.8691;
251.4000;1.1689;0.8716;
251.7000;1.1681;0.8665;
252.0000;1.1656;0.8615;
252.3000;1.1665;0.8716;
252.6000;1.1722;0.8917;
252.9000;1.1697;0.8766;
253.2000;1.1656;0.8565;
253.5000;1.1656;0.8514;
253.8000;1.1673;0.8590;
254.1000;1.1681;0.8665;
254.4000;1.1648;0.8615;
254.7000;1.1673;0.8615;
255.0000;1.1673;0.8665;
255.3000;1.1681;0.8691;
255.6000;1.1705;0.8766;
255.9000;1.1681;0.8640;
256.2000;1.1673;0.8665;
256.5000;1.1681;0.8640;
256.8000;1.1681;0.8691;
257.1000;1.1632;0.8514;
257.4000;1.1681;0.8665;
257.7000;1.1681;0.8716;
258.0000;1.1681;0.8791;
258.3000;1.1656;0.8615;
258.6000;1.1673;0.8615;
258.9000;1.1665;0.8590;
259.2000;1.1673;0.8615;
259.5000;1.1673;0.8640;
259.8000;1.1673;0.8615;
260.1000;1.1681;0.8615;
260.4000;1.1746;0.8741;
260.7000;1.1665;0.8565;
261.0000;1.1673;0.8539;
261.3000;1.1640;0.8413;
261.6000;1.1673;0.8539;
261.9000;1.1665;0.8464;
262.2000;1.1665;0.8539;
262.5000;1.1665;0.8691;
262.8000;1.1665;0.8665;
263.1000;1.1673;0.8665;
263.4000;1.1656;0.8665;
263.7000;1.1665;0.8766;
264.0000;1.1722;0.8968;
264.3000;1.1681;0.8791;
264.6000;1.1673;0.8691;
264.9000;1.1665;0.8665;
265.2000;1.1681;0.8665;
265.5000;1.1681;0.8615;
265.8000;1.1665;0.8514;
266.1000;1.1705;0.8691;
266.4000;1.1673;0.8665;
266.7000;1.1608;0.8464;
267.0000;1.1656;0.8691;
267.3000;1.1656;0.8766;
267.6000;1.1673;0.8842;
267.9000;1.1697;0.8842;
268.2000;1.1738;0.8867;
268.5000;1.1656;0.8665;
268.8000;1.1656;0.8640;
269.1000;1.1640;0.8489;
269.4000;1.1656;0.8489;
269.7000;1.1673;0.8489;
270.0000;1.1665;0.8640;
270.3000;1.1673;0.8691;
270.6000;1.1689;0.8716;
270.9000;1.1673;0.8640;
271.2000;1.1673;0.8640;
271.5000;1.1665;0.8590;
271.8000;1.1673;0.8590;
272.1000;1.1681;0.8514;
272.4000;1.1665;0.8565;
272.7000;1.1624;0.8439;
273.0000;1.1681;0.8590;
273.3000;1.1665;0.8691;
273.6000;1.1754;0.8917;
273.9000;1.1673;0.8741;
274.2000;1.1681;0.8741;
274.5000;1.1616;0.8590;
274.8000;1.1681;0.8791;
275.1000;1.1681;0.8816;
275.4000;1.1673;0.8867;
275.7000;1.1681;0.8867;
276.0000;1.1656;0.8791;
276.3000;1.1673;0.8816;
276.6000;1.1632;0.8615;
276.9000;1.1648;0.8716;
277.2000;1.1656;0.8791;
277.5000;1.1665;0.8665;
277.8000;1.1656;0.8665;
278.1000;1.1673;0.8691;
278.4000;1.1673;0.8691;
278.7000;1.1681;0.8665;
279.0000;1.1665;0.8539;
279.3000;1.1681;0.8565;
279.6000;1.1665;0.8514;
279.9000;1.1673;0.8590;
280.2000;1.1673;0.8691;
280.5000;1.1665;0.8665;
280.8000;1.1665;0.8640;
281.1000;1.1656;0.8565;
281.4000;1.1689;0.8691;
281.7000;1.1656;0.8590;
282.0000;1.1673;0.8565;
282.3000;1.1673;0.8640;
282.6000;1.1665;0.8615;
282.9000;1.1689;0.8691;
283.2000;1.1640;0.8590;
283.5000;1.1624;0.8539;
283.8000;1.1681;0.8691;
284.1000;1.1640;0.8640;
284.4000;1.1648;0.8665;
284.7000;1.1673;0.8716;
285.0000;1.1673;0.8716;
285.3000;1.1648;0.8716;
285.6000;1.1648;0.8665;
285.9000;1.1665;0.8691;
286.2000;1.1673;0.8766;
286.5000;1.1632;0.8665;
286.8000;1.1681;0.8766;
287.1000;1.1713;0.8842;
287.4000;1.1665;0.8816;
287.7000;1.1673;0.8942;
288.0000;1.1705;0.9094;
288.3000;1.1689;0.9094;
288.6000;1.1705;0.9043;
288.9000;1.1673;0.8968;
289.2000;1.1673;0.8917;
289.5000;1.1681;0.8968;
289.8000;1.1673;0.9068;
290.1000;1.1665;0.8968;
290.4000;1.1681;0.8842;
290.7000;1.1673;0.8917;
291.0000;1.1673;0.8917;
291.3000;1.1673;0.8842;
291.6000;1.1656;0.8766;
291.9000;1.1713;0.8968;
292.2000;1.1681;0.8867;
292.5000;1.1689;0.8892;
292.8000;1.1665;0.8741;
293.1000;1.1673;0.8741;
293.4000;1.1754;0.8917;
293.7000;1.1656;0.8741;
294.0000;1.1673;0.8816;
294.3000;1.1632;0.8691;
294.6000;1.1681;0.8816;
294.9000;1.1673;0.8791;
295.2000;1.1640;0.8691;
295.5000;1.1722;0.8842;
295.8000;1.1746;0.8968;
296.1000;1.1673;0.8867;
296.4000;1.1673;0.8816;
296.7000;1.1648;0.8741;
297.0000;1.1673;0.8791;
297.3000;1.1656;0.8691;
297.6000;1.1673;0.8716;
297.9000;1.1673;0.8665;
298.2000;1.1673;0.8665;
298.5000;1.1689;0.8691;
298.8000;1.1673;0.8716;
299.1000;1.1673;0.8741;
299.4000;1.1640;0.8766;
299.7000;1.1681;0.8867;
300.0000;1.1673;0.8842;
300.3000;1.1673;0.8816;
300.6000;1.1673;0.8766;
300.9000;1.1673;0.8842;
301.2000;1.1681;0.8892;
301.5000;1.1673;0.8917;
301.8000;1.1681;0.8892;
302.1000;1.1665;0.8791;
302.4000;1.1681;0.8741;
302.7000;1.1665;0.8640;
303.0000;1.1673;0.8640;
303.3000;1.1665;0.8716;
303.6000;1.1665;0.8665;
303.9000;1.1665;0.8716;
304.2000;1.1656;0.8766;
304.5000;1.1648;0.8791;
304.8000;1.1665;0.8766;
305.1000;1.1656;0.8816;
305.4000;1.1665;0.8791;
305.7000;1.1656;0.8816;
306.0000;1.1665;0.8791;
306.3000;1.1656;0.8867;
306.6000;1.1673;0.8942;
306.9000;1.1632;0.8842;
307.2000;1.1697;0.9018;
307.5000;1.1689;0.9119;
307.8000;1.1656;0.9068;
308.1000;1.1665;0.9018;
308.4000;1.1673;0.9094;
308.7000;1.1673;0.9043;
309.0000;1.1665;0.8917;
309.3000;1.1632;0.8791;
309.6000;1.1640;0.8842;
309.9000;1.1673;0.8968;
310.2000;1.1673;0.8968;
310.5000;1.1681;0.8968;
310.8000;1.1665;0.8968;
311.1000;1.1681;0.8867;
311.4000;1.1681;0.8867;
311.7000;1.1673;0.8867;
312.0000;1.1689;0.8842;
312.3000;1.1665;0.8766;
312.6000;1.1616;0.8691;
312.9000;1.1616;0.8741;
313.2000;1.1648;0.8842;
313.5000;1.1656;0.8867;
313.8000;1.1648;0.8968;
314.1000;1.1673;0.9043;
314.4000;1.1648;0.8993;
314.7000;1.1648;0.9018;
315.0000;1.1665;0.9043;
315.3000;1.1673;0.9094;
315.6000;1.1673;0.9094;
315.9000;1.1689;0.8993;
316.2000;1.1722;0.9068;
316.5000;1.1681;0.8917;
316.8000;1.1681;0.8892;
317.1000;1.1665;0.8917;
317.4000;1.1673;0.8917;
317.7000;1.1640;0.8842;
318.0000;1.1656;0.8842;
318.3000;1.1632;0.8791;
318.6000;1.1681;0.8816;
318.9000;1.1665;0.8741;
319.2000;1.1681;0.8741;
319.5000;1.1673;0.8816;
319.8000;1.1665;0.8791;
320.1000;1.1673;0.8766;
320.4000;1.1665;0.8816;
320.7000;1.1656;0.8791;
321.0000;1.1697;0.8892;
321.3000;1.1673;0.8842;
321.6000;1.1681;0.8867;
321.9000;1.1673;0.8791;
322.2000;1.1681;0.8716;
322.5000;1.1722;0.8816;
322.8000;1.1656;0.8640;
323.1000;1.1665;0.8691;
323.4000;1.1648;0.8691;
323.7000;1.1665;0.8691;
324.0000;1.1673;0.8615;
324.3000;1.1665;0.8439;
324.6000;1.1730;0.8539;
324.9000;1.1665;0.8388;
325.2000;1.1656;0.8489;
325.5000;1.1656;0.8565;
325.8000;1.1665;0.8640;
326.1000;1.1665;0.8640;
326.4000;1.1665;0.8665;
326.7000;1.1673;0.8640;
327.0000;1.1665;0.8691;
327.3000;1.1665;0.8816;
327.6000;1.1656;0.8842;
327.9000;1.1673;0.8892;
328.2000;1.1656;0.8892;
328.5000;1.1665;0.8917;
328.8000;1.1656;0.8867;
329.1000;1.1632;0.8842;
329.4000;1.1656;0.8942;
329.7000;1.1656;0.8942;
330.0000;1.1665;0.8892;
330.3000;1.1665;0.8892;
330.6000;1.1673;0.8867;
330.9000;1.1656;0.8867;
331.2000;1.1648;0.8766;
331.5000;1.1713;0.9018;
331.8000;1.1673;0.8942;
332.1000;1.1673;0.8917;
332.4000;1.1656;0.8842;
332.7000;1.1673;0.8867;
333.0000;1.1673;0.8816;
333.3000;1.1648;0.8691;
333.6000;1.1648;0.8615;
333.9000;1.1665;0.8640;
334.2000;1.1648;0.8691;
334.5000;1.1665;0.8816;
334.8000;1.1648;0.8816;
335.1000;1.1656;0.8842;
335.4000;1.1665;0.8842;
335.7000;1.1656;0.8741;
336.0000;1.1640;0.8539;
336.3000;1.1648;0.8565;
336.6000;1.1673;0.8565;
336.9000;1.1656;0.8489;
337.2000;1.1665;0.8489;
337.5000;1.1681;0.8565;
337.8000;1.1665;0.8464;
338.1000;1.1640;0.8464;
338.4000;1.1648;0.8313;
338.7000;1.1656;0.8363;
339.0000;1.1656;0.8464;
339.3000;1.1673;0.8464;
339.6000;1.1673;0.8539;
339.9000;1.1640;0.8489;
340.2000;1.1656;0.8590;
340.5000;1.1648;0.8539;
340.8000;1.1656;0.8539;
341.1000;1.1656;0.8489;
341.4000;1.1665;0.8439;
341.7000;1.1681;0.8439;
342.0000;1.1673;0.8439;
342.3000;1.1648;0.8464;
342.6000;1.1608;0.8363;
342.9000;1.1665;0.8539;
343.2000;1.1656;0.8640;
343.5000;1.1681;0.8791;
343.8000;1.1665;0.8842;
344.1000;1.1656;0.8816;
344.4000;1.1656;0.8791;
344.7000;1.1640;0.8716;
345.0000;1.1656;0.8716;
345.3000;1.1681;0.8665;
345.6000;1.1673;0.8691;
345.9000;1.1648;0.8640;
346.2000;1.1665;0.8691;
346.5000;1.1648;0.8766;
346.8000;1.1673;0.8816;
347.1000;1.1673;0.8766;
347.4000;1.1656;0.8791;
347.7000;1.1665;0.8791;
348.0000;1.1673;0.8842;
348.3000;1.1673;0.8842;
348.6000;1.1673;0.8892;
348.9000;1.1648;0.8816;
349.2000;1.1656;0.8816;
349.5000;1.1681;0.8842;
349.8000;1.1665;0.8791;
350.1000;1.1656;0.8766;
350.4000;1.1665;0.8816;
350.7000;1.1673;0.8892;
351.0000;1.1656;0.8766;
351.3000;1.1648;0.8741;
351.6000;1.1648;0.8716;
351.9000;1.1648;0.8615;
352.2000;1.1656;0.8665;
352.5000;1.1656;0.8691;
352.8000;1.1624;0.8640;
353.1000;1.1640;0.8640;
353.4000;1.1665;0.8741;
353.7000;1.1681;0.8691;
354.0000;1.1665;0.8691;
354.3000;1.1681;0.8791;
354.6000;1.1665;0.8741;
354.9000;1.1665;0.8791;
355.2000;1.1673;0.8816;
355.5000;1.1705;0.8968;
355.8000;1.1673;0.8892;
356.1000;1.1673;0.8942;
356.4000;1.1656;0.8791;
356.7000;1.1640;0.8766;
357.0000;1.1673;0.8766;
357.3000;1.1705;0.8842;
357.6000;1.1632;0.8665;
357.9000;1.1681;0.8716;
358.2000;1.1656;0.8716;
358.5000;1.1673;0.8665;
358.8000;1.1656;0.8590;
359.1000;1.1648;0.8539;
359.4000;1.1673;0.8590;
359.7000;1.1656;0.8590;
360.0000;1.1665;0.8640;
360.3000;1.1640;0.8665;
360.6000;1.1583;0.8514;
360.9000;1.1689;0.8691;
361.2000;1.1665;0.8565;
361.5000;1.1648;0.8640;
361.8000;1.1665;0.8590;
362.1000;1.1656;0.8514;
362.4000;1.1656;0.8514;
362.7000;1.1673;0.8539;
363.0000;1.1673;0.8590;
363.3000;1.1673;0.8640;
363.6000;1.1673;0.8665;
363.9000;1.1656;0.8640;
364.2000;1.1665;0.8665;
364.5000;1.1673;0.8766;
364.8000;1.1656;0.8791;
365.1000;1.1665;0.8816;
365.4000;1.1665;0.8741;
365.7000;1.1648;0.8716;
366.0000;1.1656;0.8691;
366.3000;1.1656;0.8640;
366.6000;1.1656;0.8565;
366.9000;1.1656;0.8590;
367.2000;1.1673;0.8741;
367.5000;1.1656;0.8691;
367.8000;1.1656;0.8791;
368.1000;1.1656;0.8816;
368.4000;1.1673;0.8741;
368.7000;1.1665;0.8741;
369.0000;1.1665;0.8691;
369.3000;1.1673;0.8691;
369.6000;1.1665;0.8716;
369.9000;1.1681;0.8791;
370.2000;1.1656;0.8741;
370.5000;1.1656;0.8716;
370.8000;1.1648;0.8716;
371.1000;1.1665;0.8816;
371.4000;1.1656;0.8867;
371.7000;1.1632;0.8766;
372.0000;1.1656;0.8816;
372.3000;1.1656;0.8816;
372.6000;1.1673;0.8816;
372.9000;1.1656;0.8816;
373.2000;1.1632;0.8816;
373.5000;1.1673;0.8942;
373.8000;1.1673;0.8867;
374.1000;1.1689;0.8816;
374.4000;1.1673;0.8691;
374.7000;1.1673;0.8716;
375.0000;1.1665;0.8691;
375.3000;1.1624;0.8640;
375.6000;1.1665;0.8665;
375.9000;1.1656;0.8691;
376.2000;1.1665;0.8615;
376.5000;1.1656;0.8590;
376.8000;1.1608;0.8489;
377.1000;1.1632;0.8539;
377.4000;1.1665;0.8615;
377.7000;1.1673;0.8539;
378.0000;1.1656;0.8539;
378.3000;1.1648;0.8514;
378.6000;1.1665;0.8565;
378.9000;1.1673;0.8665;
379.2000;1.1656;0.8665;
379.5000;1.1665;0.8716;
379.8000;1.1648;0.8741;
380.1000;1.1648;0.8665;
380.4000;1.1665;0.8716;
380.7000;1.1640;0.8640;
381.0000;1.1665;0.8665;
381.3000;1.1648;0.8691;
381.6000;1.1656;0.8615;
381.9000;1.1656;0.8590;
382.2000;1.1648;0.8640;
382.5000;1.1624;0.8615;
382.8000;1.1624;0.8691;
383.1000;1.1648;0.8741;
383.4000;1.1648;0.8691;
383.7000;1.1648;0.8691;
384.0000;1.1673;0.8716;
384.3000;1.1616;0.8514;
384.6000;1.1656;0.8514;
384.9000;1.1689;0.8615;
385.2000;1.1673;0.8615;
385.5000;1.1673;0.8615;
385.8000;1.1665;0.8640;
386.1000;1.1665;0.8716;
386.4000;1.1665;0.8640;
386.7000;1.1673;0.8691;
387.0000;1.1697;0.8842;
387.3000;1.1648;0.8640;
387.6000;1.1673;0.8665;
387.9000;1.1656;0.8665;
388.2000;1.1656;0.8590;
388.5000;1.1648;0.8539;
388.8000;1.1665;0.8489;
389.1000;1.1656;0.8413;
389.4000;1.1665;0.8363;
389.7000;1.1656;0.8413;
390.0000;1.1665;0.8439;
390.3000;1.1665;0.8413;
390.6000;1.1656;0.8388;
390.9000;1.1648;0.8439;
391.2000;1.1665;0.8514;
391.5000;1.1624;0.8413;
391.8000;1.1656;0.8464;
392.1000;1.1648;0.8413;
392.4000;1.1656;0.8464;
392.7000;1.1656;0.8514;
393.0000;1.1648;0.8539;
393.3000;1.1640;0.8565;
393.6000;1.1648;0.8590;
393.9000;1.1640;0.8514;
394.2000;1.1673;0.8640;
394.5000;1.1656;0.8565;
394.8000;1.1665;0.8691;
395.1000;1.1689;0.8716;
395.4000;1.1665;0.8665;
395.7000;1.1640;0.8691;
396.0000;1.1656;0.8716;
396.3000;1.1648;0.8716;
396.6000;1.1656;0.8716;
396.9000;1.1665;0.8716;
397.2000;1.1656;0.8691;
397.5000;1.1656;0.8691;
397.8000;1.1665;0.8842;
398.1000;1.1689;0.8867;
398.4000;1.1656;0.8741;
398.7000;1.1640;0.8665;
399.0000;1.1656;0.8615;
399.3000;1.1689;0.8640;
399.6000;1.1656;0.8665;
399.9000;1.1665;0.8741;
400.2000;1.1681;0.8716;
400.5000;1.1640;0.8615;
400.8000;1.1656;0.8665;
401.1000;1.1656;0.8640;
401.4000;1.1681;0.8716;
401.7000;1.1656;0.8640;
402.0000;1.1665;0.8691;
402.3000;1.1640;0.8691;
402.6000;1.1665;0.8716;
402.9000;1.1665;0.8766;
403.2000;1.1640;0.8691;
403.5000;1.1640;0.8691;
403.8000;1.1665;0.8691;
404.1000;1.1648;0.8665;
404.4000;1.1656;0.8716;
404.7000;1.1640;0.8640;
405.0000;1.1640;0.8665;
405.3000;1.1648;0.8691;
405.6000;1.1681;0.8766;
405.9000;1.1665;0.8766;
406.2000;1.1656;0.8791;
406.5000;1.1648;0.8766;
406.8000;1.1640;0.8691;
407.1000;1.1656;0.8791;
407.4000;1.1648;0.8741;
407.7000;1.1656;0.8716;
408.0000;1.1673;0.8741;
408.3000;1.1730;0.8892;
408.6000;1.1648;0.8766;
408.9000;1.1656;0.8766;
409.2000;1.1689;0.8791;
409.5000;1.1673;0.8716;
409.8000;1.1665;0.8716;
410.1000;1.1656;0.8691;
410.4000;1.1624;0.8615;
410.7000;1.1648;0.8741;
411.0000;1.1665;0.8867;
411.3000;1.1632;0.8691;
411.6000;1.1640;0.8665;
411.9000;1.1665;0.8716;
412.2000;1.1673;0.8766;
412.5000;1.1730;0.8942;
412.8000;1.1656;0.8716;
413.1000;1.1665;0.8741;
413.4000;1.1656;0.8741;
413.7000;1.1624;0.8691;
414.0000;1.1665;0.8716;
414.3000;1.1665;0.8716;
414.6000;1.1673;0.8691;
414.9000;1.1665;0.8691;
415.2000;1.1640;0.8716;
415.5000;1.1640;0.8716;
415.8000;1.1616;0.8640;
416.1000;1.1648;0.8665;
416.4000;1.1673;0.8716;
416.7000;1.1640;0.8665;
417.0000;1.1640;0.8766;
417.3000;1.1656;0.8816;
417.6000;1.1665;0.8842;
417.9000;1.1656;0.8917;
418.2000;1.1656;0.8816;
418.5000;1.1665;0.8842;
418.8000;1.1665;0.8917;
419.1000;1.1656;0.8892;
419.4000;1.1648;0.8942;
419.7000;1.1673;0.8968;
420.0000;1.1673;0.8968;
420.3000;1.1689;0.8968;
420.6000;1.1665;0.8867;
420.9000;1.1656;0.8917;
421.2000;1.1640;0.8892;
421.5000;1.1632;0.8867;
421.8000;1.1640;0.8816;
422.1000;1.1665;0.8942;
422.4000;1.1648;0.9018;
422.7000;1.1648;0.8968;
423.0000;1.1656;0.8968;
423.3000;1.1656;0.8993;
423.6000;1.1640;0.8917;
423.9000;1.1665;0.8892;
424.2000;1.1697;0.8942;
424.5000;1.1656;0.8791;
424.8000;1.1616;0.8640;
425.1000;1.1648;0.8665;
425.4000;1.1665;0.8691;
425.7000;1.1624;0.8640;
426.0000;1.1656;0.8665;
426.3000;1.1648;0.8640;
426.6000;1.1632;0.8590;
426.9000;1.1632;0.8539;
427.2000;1.1665;0.8514;
427.5000;1.1648;0.8489;
427.8000;1.1722;0.8691;
428.1000;1.1640;0.8514;
428.4000;1.1656;0.8539;
428.7000;1.1673;0.8539;
429.0000;1.1648;0.8565;
429.3000;1.1656;0.8640;
429.6000;1.1665;0.8640;
429.9000;1.1656;0.8640;
430.2000;1.1648;0.8640;
430.5000;1.1640;0.8514;
430.8000;1.1673;0.8464;
431.1000;1.1730;0.8640;
431.4000;1.1616;0.8413;
431.7000;1.1632;0.8590;
432.0000;1.1689;0.8766;
432.3000;1.1665;0.8766;
432.6000;1.1640;0.8691;
432.9000;1.1656;0.8691;
433.2000;1.1705;0.8791;
433.5000;1.1673;0.8691;
433.8000;1.1632;0.8590;
434.1000;1.1648;0.8539;
434.4000;1.1624;0.8464;
434.7000;1.1640;0.8439;
435.0000;1.1656;0.8464;
435.3000;1.1632;0.8388;
435.6000;1.1656;0.8439;
435.9000;1.1648;0.8489;
436.2000;1.1648;0.8413;
436.5000;1.1656;0.8489;
436.8000;1.1689;0.8615;
437.1000;1.1648;0.8590;
437.4000;1.1648;0.8665;
437.7000;1.1673;0.8716;
438.0000;1.1648;0.8665;
438.3000;1.1640;0.8590;
438.6000;1.1640;0.8665;
438.9000;1.1648;0.8716;
439.2000;1.1640;0.8816;
439.5000;1.1632;0.8791;
439.8000;1.1648;0.8766;
440.1000;1.1640;0.8741;
440.4000;1.1648;0.8716;
440.7000;1.1648;0.8716;
441.0000;1.1640;0.8791;
441.3000;1.1656;0.8867;
441.6000;1.1632;0.8842;
441.9000;1.1640;0.8867;
442.2000;1.1632;0.8867;
442.5000;1.1656;0.8892;
442.8000;1.1656;0.8791;
443.1000;1.1640;0.8691;
443.4000;1.1648;0.8716;
443.7000;1.1648;0.8716;
444.0000;1.1648;0.8665;
444.3000;1.1656;0.8691;
444.6000;1.1624;0.8615;
444.9000;1.1616;0.8640;
445.2000;1.1673;0.8816;
445.5000;1.1697;0.8942;
445.8000;1.1681;0.8867;
446.1000;1.1640;0.8842;
446.4000;1.1648;0.8791;
446.7000;1.1640;0.8741;
447.0000;1.1656;0.8590;
447.3000;1.1583;0.8539;
447.6000;1.1640;0.8665;
447.9000;1.1608;0.8615;
448.2000;1.1640;0.8665;
448.5000;1.1640;0.8640;
448.8000;1.1681;0.8791;
449.1000;1.1632;0.8716;
449.4000;1.1648;0.8741;
449.7000;1.1648;0.8716;
450.0000;1.1665;0.8691;
450.3000;1.1656;0.8640;
450.6000;1.1648;0.8514;
450.9000;1.1640;0.8565;
451.2000;1.1673;0.8665;
451.5000;1.1673;0.8640;
451.8000;1.1656;0.8539;
452.1000;1.1648;0.8615;
452.4000;1.1656;0.8640;
452.7000;1.1648;0.8691;
453.0000;1.1665;0.8741;
453.3000;1.1640;0.8716;
453.6000;1.1632;0.8741;
453.9000;1.1665;0.8791;
454.2000;1.1665;0.8842;
454.5000;1.1624;0.8716;
454.8000;1.1673;0.8816;
455.1000;1.1648;0.8791;
455.4000;1.1648;0.8741;
455.7000;1.1640;0.8741;
456.0000;1.1673;0.8791;
456.3000;1.1665;0.8917;
456.6000;1.1746;0.9169;
456.9000;1.1665;0.8968;
457.2000;1.1656;0.8867;
457.5000;1.1632;0.8816;
457.8000;1.1648;0.8842;
458.1000;1.1673;0.8842;
458.4000;1.1632;0.8741;
458.7000;1.1665;0.8816;
459.0000;1.1656;0.8816;
459.3000;1.1648;0.8867;
459.6000;1.1640;0.8842;
459.9000;1.1656;0.8842;
460.2000;1.1640;0.8741;
460.5000;1.1656;0.8867;
460.8000;1.1665;0.8842;
461.1000;1.1656;0.8842;
461.4000;1.1681;0.8791;
461.7000;1.1673;0.8791;
462.0000;1.1640;0.8640;
462.3000;1.1648;0.8615;
462.6000;1.1648;0.8665;
462.9000;1.1640;0.8691;
463.2000;1.1665;0.8791;
463.5000;1.1656;0.8716;
463.8000;1.1591;0.8640;
464.1000;1.1632;0.8716;
464.4000;1.1640;0.8716;
464.7000;1.1648;0.8741;
465.0000;1.1648;0.8766;
465.3000;1.1656;0.8665;
465.6000;1.1656;0.8539;
465.9000;1.1656;0.8539;
466.2000;1.1648;0.8539;
466.5000;1.1648;0.8539;
466.8000;1.1665;0.8640;
467.1000;1.1665;0.8716;
467.4000;1.1665;0.8665;
467.7000;1.1648;0.8665;
468.0000;1.1656;0.8691;
468.3000;1.1648;0.8640;
468.6000;1.1656;0.8640;
468.9000;1.1632;0.8640;
469.2000;1.1632;0.8615;
469.5000;1.1640;0.8741;
469.8000;1.1681;0.8867;
470.1000;1.1656;0.8842;
470.4000;1.1656;0.8766;
470.7000;1.1648;0.8741;
471.0000;1.1681;0.8716;
471.3000;1.1656;0.8514;
471.6000;1.1640;0.8413;
471.9000;1.1648;0.8388;
472.2000;1.1681;0.8464;
472.5000;1.1648;0.8338;
472.8000;1.1640;0.8363;
473.1000;1.1722;0.8590;
473.4000;1.1632;0.8439;
473.7000;1.1640;0.8439;
474.0000;1.1624;0.8539;
474.3000;1.1648;0.8691;
474.6000;1.1640;0.8640;
474.9000;1.1648;0.8665;
475.2000;1.1640;0.8665;
475.5000;1.1648;0.8640;
475.8000;1.1665;0.8691;
476.1000;1.1648;0.8615;
476.4000;1.1648;0.8741;
476.7000;1.1640;0.8716;
477.0000;1.1640;0.8615;
477.3000;1.1656;0.8716;
477.6000;1.1648;0.8741;
477.9000;1.1632;0.8691;
478.2000;1.1624;0.8665;
478.5000;1.1632;0.8640;
478.8000;1.1624;0.8590;
479.1000;1.1640;0.8565;
479.4000;1.1632;0.8590;
479.7000;1.1632;0.8539;
480.0000;1.1632;0.8514;
480.3000;1.1640;0.8489;
480.6000;1.1632;0.8464;
480.9000;1.1648;0.8539;
481.2000;1.1648;0.8615;
481.5000;1.1640;0.8615;
481.8000;1.1665;0.8640;
482.1000;1.1640;0.8691;
482.4000;1.1640;0.8741;
482.7000;1.1640;0.8691;
483.0000;1.1656;0.8766;
483.3000;1.1648;0.8691;
483.6000;1.1640;0.8640;
483.9000;1.1640;0.8590;
484.2000;1.1640;0.8590;
484.5000;1.1640;0.8665;
484.8000;1.1673;0.8741;
485.1000;1.1648;0.8640;
485.4000;1.1648;0.8514;
485.7000;1.1656;0.8514;
486.0000;1.1689;0.8691;
486.3000;1.1656;0.8615;
486.6000;1.1648;0.8640;
486.9000;1.1656;0.8615;
487.2000;1.1656;0.8565;
487.5000;1.1665;0.8615;
487.8000;1.1648;0.8665;
488.1000;1.1632;0.8615;
488.4000;1.1656;0.8716;
488.7000;1.1648;0.8665;
489.0000;1.1656;0.8716;
489.3000;1.1640;0.8640;
489.6000;1.1656;0.8691;
489.9000;1.1656;0.8691;
490.2000;1.1640;0.8640;
490.5000;1.1632;0.8590;
490.8000;1.1656;0.8665;
491.1000;1.1624;0.8640;
491.4000;1.1648;0.8716;
491.7000;1.1648;0.8665;
492.0000;1.1640;0.8640;
492.3000;1.1656;0.8766;
492.6000;1.1648;0.8665;
492.9000;1.1632;0.8691;
493.2000;1.1673;0.8917;
493.5000;1.1640;0.8842;
493.8000;1.1648;0.8791;
494.1000;1.1632;0.8791;
494.4000;1.1632;0.8791;
494.7000;1.1640;0.8892;
495.0000;1.1640;0.8867;
495.3000;1.1640;0.8867;
495.6000;1.1648;0.8867;
495.9000;1.1648;0.8816;
496.2000;1.1640;0.8842;
496.5000;1.1640;0.8816;
496.8000;1.1632;0.8766;
497.1000;1.1624;0.8691;
497.4000;1.1616;0.8716;
497.7000;1.1632;0.8716;
498.0000;1.1624;0.8691;
498.3000;1.1624;0.8615;
498.6000;1.1656;0.8816;
498.9000;1.1608;0.8615;
499.2000;1.1648;0.8716;
499.5000;1.1624;0.8716;
499.8000;1.1640;0.8766;
500.1000;1.1648;0.8791;
500.4000;1.1665;0.8867;
500.7000;1.1640;0.8766;
501.0000;1.1705;0.8917;
501.3000;1.1648;0.8766;
501.6000;1.1632;0.8741;
501.9000;1.1640;0.8791;
502.2000;1.1640;0.8791;
502.5000;1.1665;0.8842;
502.8000;1.1632;0.8791;
503.1000;1.1648;0.8766;
503.4000;1.1656;0.8816;
503.7000;1.1648;0.8917;
504.0000;1.1640;0.8867;
504.3000;1.1640;0.8842;
504.6000;1.1624;0.8791;
504.9000;1.1632;0.8691;
505.2000;1.1648;0.8691;
505.5000;1.1656;0.8691;
505.8000;1.1632;0.8640;
506.1000;1.1640;0.8665;
506.4000;1.1648;0.8691;
506.7000;1.1665;0.8691;
507.0000;1.1632;0.8665;
507.3000;1.1640;0.8640;
507.6000;1.1665;0.8615;
507.9000;1.1640;0.8565;
508.2000;1.1640;0.8590;
508.5000;1.1656;0.8615;
508.8000;1.1648;0.8615;
509.1000;1.1632;0.8615;
509.4000;1.1624;0.8640;
509.7000;1.1632;0.8590;
510.0000;1.1640;0.8665;
510.3000;1.1656;0.8716;
510.6000;1.1632;0.8665;
510.9000;1.1632;0.8741;
511.2000;1.1640;0.8766;
511.5000;1.1656;0.8816;
511.8000;1.1640;0.8842;
512.1000;1.1648;0.8867;
512.4000;1.1648;0.8816;
512.7000;1.1624;0.8741;
513.0000;1.1648;0.8741;
513.3000;1.1632;0.8741;
513.6000;1.1648;0.8791;
513.9000;1.1632;0.8766;
514.2000;1.1632;0.8842;
514.5000;1.1624;0.8842;
514.8000;1.1632;0.8741;
515.1000;1.1640;0.8791;
515.4000;1.1632;0.8766;
515.7000;1.1632;0.8766;
516.0000;1.1632;0.8665;
516.3000;1.1665;0.8741;
516.6000;1.1656;0.8816;
516.9000;1.1640;0.8867;
517.2000;1.1640;0.8791;
517.5000;1.1632;0.8791;
517.8000;1.1648;0.8741;
518.1000;1.1640;0.8867;
518.4000;1.1640;0.8816;
518.7000;1.1632;0.8816;
519.0000;1.1632;0.8741;
519.3000;1.1632;0.8691;
519.6000;1.1673;0.8791;
519.9000;1.1632;0.8565;
520.2000;1.1632;0.8691;
520.5000;1.1640;0.8716;
520.8000;1.1640;0.8615;
521.1000;1.1665;0.8640;
521.4000;1.1632;0.8565;
521.7000;1.1656;0.8665;
522.0000;1.1665;0.8741;
522.3000;1.1640;0.8766;
522.6000;1.1648;0.8791;
522.9000;1.1648;0.8867;
523.2000;1.1648;0.8867;
523.5000;1.1640;0.8791;
523.8000;1.1616;0.8665;
524.1000;1.1632;0.8665;
524.4000;1.1591;0.8590;
524.7000;1.1640;0.8716;
525.0000;1.1640;0.8691;
525.3000;1.1648;0.8716;
525.6000;1.1648;0.8691;
525.9000;1.1640;0.8766;
526.2000;1.1648;0.8816;
526.5000;1.1632;0.8741;
526.8000;1.1648;0.8716;
527.1000;1.1648;0.8691;
527.4000;1.1648;0.8665;
527.7000;1.1665;0.8741;
528.0000;1.1648;0.8741;
528.3000;1.1648;0.8716;
528.6000;1.1624;0.8665;
528.9000;1.1632;0.8615;
529.2000;1.1575;0.8413;
529.5000;1.1665;0.8665;
529.8000;1.1640;0.8565;
530.1000;1.1648;0.8590;
530.4000;1.1632;0.8665;
530.7000;1.1608;0.8615;
531.0000;1.1648;0.8691;
531.3000;1.1632;0.8640;
531.6000;1.1640;0.8741;
531.9000;1.1713;0.8993;
532.2000;1.1648;0.8816;
532.5000;1.1640;0.8766;
532.8000;1.1697;0.8942;
533.1000;1.1640;0.8791;
533.4000;1.1624;0.8665;
533.7000;1.1648;0.8741;
534.0000;1.1648;0.8716;
534.3000;1.1656;0.8766;
534.6000;1.1624;0.8691;
534.9000;1.1632;0.8766;
535.2000;1.1624;0.8766;
535.5000;1.1632;0.8791;
535.8000;1.1632;0.8640;
536.1000;1.1656;0.8665;
536.4000;1.1648;0.8691;
536.7000;1.1665;0.8816;
537.0000;1.1640;0.8741;
537.3000;1.1656;0.8741;
537.6000;1.1648;0.8816;
537.9000;1.1600;0.8716;
538.2000;1.1648;0.8791;
538.5000;1.1648;0.8716;
538.8000;1.1632;0.8640;
539.1000;1.1624;0.8691;
539.4000;1.1640;0.8716;
539.7000;1.1624;0.8640;
540.0000;1.1624;0.8590;
540.3000;1.1648;0.8665;
540.6000;1.1632;0.8615;
540.9000;1.1640;0.8665;
541.2000;1.1656;0.8716;
541.5000;1.1632;0.8741;
541.8000;1.1632;0.8791;
542.1000;1.1673;0.8842;
542.4000;1.1632;0.8716;
542.7000;1.1632;0.8615;
543.0000;1.1648;0.8716;
543.3000;1.1640;0.8766;
543.6000;1.1640;0.8791;
543.9000;1.1640;0.8816;
544.2000;1.1608;0.8665;
544.5000;1.1624;0.8539;
544.8000;1.1632;0.8691;
545.1000;1.1616;0.8691;
545.4000;1.1616;0.8615;
545.7000;1.1608;0.8615;
546.0000;1.1591;0.8565;
546.3000;1.1624;0.8615;
546.6000;1.1640;0.8691;
546.9000;1.1608;0.8539;
547.2000;1.1640;0.8665;
547.5000;1.1648;0.8665;
547.8000;1.1681;0.8766;
548.1000;1.1648;0.8615;
548.4000;1.1665;0.8640;
548.7000;1.1632;0.8590;
549.0000;1.1591;0.8439;
549.3000;1.1632;0.8565;
549.6000;1.1632;0.8615;
549.9000;1.1673;0.8791;
550.2000;1.1640;0.8691;
550.5000;1.1640;0.8640;
550.8000;1.1591;0.8464;
551.1000;1.1640;0.8464;
551.4000;1.1665;0.8464;
551.7000;1.1656;0.8489;
552.0000;1.1656;0.8565;
552.3000;1.1665;0.8539;
552.6000;1.1656;0.8565;
552.9000;1.1665;0.8590;
553.2000;1.1656;0.8665;
553.5000;1.1656;0.8590;
553.8000;1.1648;0.8640;
554.1000;1.1640;0.8565;
554.4000;1.1632;0.8615;
554.7000;1.1673;0.8691;
555.0000;1.1640;0.8640;
555.3000;1.1640;0.8640;
555.6000;1.1608;0.8539;
555.9000;1.1648;0.8640;
556.2000;1.1648;0.8665;
556.5000;1.1632;0.8691;
556.8000;1.1648;0.8640;
557.1000;1.1624;0.8640;
557.4000;1.1640;0.8691;
557.7000;1.1648;0.8691;
558.0000;1.1648;0.8565;
558.3000;1.1665;0.8539;
558.6000;1.1648;0.8514;
558.9000;1.1648;0.8489;
559.2000;1.1640;0.8489;
559.5000;1.1640;0.8590;
559.8000;1.1648;0.8539;
560.1000;1.1640;0.8640;
560.4000;1.1616;0.8514;
560.7000;1.1616;0.8489;
561.0000;1.1591;0.8388;
561.3000;1.1632;0.8514;
561.6000;1.1640;0.8514;
561.9000;1.1648;0.8539;
562.2000;1.1608;0.8539;
562.5000;1.1640;0.8590;
562.8000;1.1648;0.8640;
563.1000;1.1665;0.8716;
563.4000;1.1624;0.8615;
563.7000;1.1640;0.8665;
564.0000;1.1640;0.8665;
564.3000;1.1632;0.8640;
564.6000;1.1632;0.8691;
564.9000;1.1632;0.8716;
565.2000;1.1624;0.8716;
565.5000;1.1624;0.8640;
565.8000;1.1608;0.8590;
566.1000;1.1632;0.8615;
566.4000;1.1624;0.8489;
566.7000;1.1640;0.8514;
567.0000;1.1632;0.8489;
567.3000;1.1608;0.8413;
567.6000;1.1632;0.8590;
567.9000;1.1722;0.8716;
568.2000;1.1640;0.8539;
568.5000;1.1624;0.8514;
568.8000;1.1656;0.8539;
569.1000;1.1648;0.8539;
569.4000;1.1632;0.8514;
569.7000;1.1640;0.8539;
570.0000;1.1632;0.8539;
570.3000;1.1640;0.8489;
570.6000;1.1640;0.8590;
570.9000;1.1632;0.8615;
571.2000;1.1600;0.8514;
571.5000;1.1624;0.8640;
571.8000;1.1640;0.8665;
572.1000;1.1640;0.8590;
572.4000;1.1632;0.8640;
572.7000;1.1640;0.8640;
573.0000;1.1640;0.8590;
573.3000;1.1624;0.8514;
573.6000;1.1640;0.8615;
573.9000;1.1648;0.8665;
574.2000;1.1632;0.8590;
574.5000;1.1632;0.8590;
574.8000;1.1632;0.8615;
575.1000;1.1640;0.8539;
575.4000;1.1640;0.8565;
575.7000;1.1656;0.8665;
576.0000;1.1624;0.8665;
576.3000;1.1624;0.8665;
576.6000;1.1648;0.8716;
576.9000;1.1624;0.8665;
577.2000;1.1632;0.8640;
577.5000;1.1632;0.8590;
577.8000;1.1632;0.8539;
578.1000;1.1632;0.8514;
578.4000;1.1665;0.8590;
578.7000;1.1640;0.8565;
579.0000;1.1648;0.8615;
579.3000;1.1656;0.8691;
579.6000;1.1632;0.8615;
579.9000;1.1632;0.8590;
580.2000;1.1632;0.8615;
580.5000;1.1624;0.8590;
580.8000;1.1624;0.8590;
581.1000;1.1624;0.8640;
581.4000;1.1575;0.8565;
581.7000;1.1632;0.8590;
582.0000;1.1616;0.8565;
582.3000;1.1624;0.8539;
582.6000;1.1608;0.8514;
582.9000;1.1608;0.8565;
583.2000;1.1608;0.8590;
583.5000;1.1624;0.8665;
583.8000;1.1656;0.8640;
584.1000;1.1608;0.8439;
584.4000;1.1640;0.8514;
584.7000;1.1600;0.8413;
585.0000;1.1624;0.8514;
585.3000;1.1665;0.8565;
585.6000;1.1624;0.8539;
585.9000;1.1632;0.8590;
586.2000;1.1681;0.8640;
586.5000;1.1616;0.8539;
586.8000;1.1640;0.8640;
587.1000;1.1624;0.8539;
587.4000;1.1632;0.8665;
587.7000;1.1624;0.8539;
588.0000;1.1624;0.8539;
588.3000;1.1632;0.8464;
588.6000;1.1616;0.8464;
588.9000;1.1591;0.8388;
589.2000;1.1624;0.8514;
589.5000;1.1632;0.8514;
589.8000;1.1640;0.8363;
590.1000;1.1648;0.8338;
590.4000;1.1640;0.8288;
590.7000;1.1632;0.8262;
591.0000;1.1632;0.8313;
591.3000;1.1624;0.8313;
591.6000;1.1648;0.8413;
591.9000;1.1632;0.8363;
592.2000;1.1632;0.8363;
592.5000;1.1697;0.8539;
592.8000;1.1632;0.8338;
593.1000;1.1673;0.8464;
593.4000;1.1697;0.8565;
593.7000;1.1632;0.8464;
594.0000;1.1624;0.8388;
594.3000;1.1648;0.8439;
594.6000;1.1640;0.8439;
594.9000;1.1583;0.8338;
595.2000;1.1632;0.8489;
595.5000;1.1616;0.8388;
595.8000;1.1632;0.8489;
596.1000;1.1640;0.8640;
596.4000;1.1632;0.8565;
596.7000;1.1616;0.8615;
597.0000;1.1640;0.8615;
597.3000;1.1632;0.8590;
597.6000;1.1608;0.8590;
597.9000;1.1616;0.8565;
598.2000;1.1608;0.8615;
598.5000;1.1632;0.8691;
598.8000;1.1608;0.8615;
599.1000;1.1616;0.8716;
599.4000;1.1632;0.8691;
599.7000;1.1559;0.8439;
600.0000;1.1616;0.8640;
600.3000;1.1632;0.8539;
600.6000;1.1624;0.8388;
600.9000;1.1583;0.8212;
601.2000;1.1502;0.8086;
601.5000;1.1412;0.7859;
601.8000;1.1323;0.7784;
602.1000;1.1225;0.7658;
602.4000;1.1127;0.7532;
602.7000;1.1054;0.7406;
603.0000;1.0973;0.7179;
603.3000;1.0899;0.7078;
603.6000;1.0810;0.6927;
603.9000;1.0729;0.6826;
604.2000;1.0598;0.6575;
604.5000;1.0590;0.6600;
604.8000;1.0533;0.6625;
605.1000;1.0444;0.6423;
605.4000;1.0387;0.6398;
605.7000;1.0322;0.6272;
606.0000;1.0281;0.6247;
606.3000;1.0232;0.6247;
606.6000;1.0175;0.6172;
606.9000;1.0118;0.6020;
607.2000;1.0085;0.6046;
607.5000;1.0045;0.5995;
607.8000;0.9915;0.5693;
608.1000;0.9955;0.5794;
608.4000;0.9931;0.5819;
608.7000;0.9858;0.5693;
609.0000;0.9817;0.5668;
609.3000;0.9776;0.5769;
609.6000;0.9784;0.5844;
609.9000;0.9719;0.5819;
610.2000;0.9711;0.5894;
610.5000;0.9621;0.5743;
610.8000;0.9589;0.5769;
611.1000;0.9597;0.5794;
611.4000;0.9499;0.5567;
611.7000;0.9499;0.5617;
612.0000;0.9467;0.5567;
612.3000;0.9508;0.5743;
612.6000;0.9402;0.5466;
612.9000;0.9369;0.5466;
613.2000;0.9345;0.5542;
613.5000;0.9312;0.5668;
613.8000;0.9263;0.5592;
614.1000;0.9255;0.5567;
614.4000;0.9247;0.5668;
614.7000;0.9190;0.5567;
615.0000;0.9198;0.5743;
615.3000;0.9149;0.5693;
615.6000;0.9044;0.5491;
615.9000;0.9076;0.5668;
616.2000;0.9068;0.5643;
616.5000;0.9035;0.5567;
616.8000;0.9011;0.5517;
617.1000;0.8978;0.5542;
617.4000;0.9003;0.5592;
617.7000;0.8905;0.5416;
618.0000;0.8921;0.5441;
618.3000;0.8881;0.5391;
618.6000;0.8881;0.5441;
618.9000;0.8921;0.5617;
619.2000;0.8824;0.5391;
619.5000;0.8816;0.5517;
619.8000;0.8742;0.5391;
620.1000;0.8767;0.5517;
620.4000;0.8759;0.5517;
620.7000;0.8718;0.5416;
621.0000;0.8710;0.5416;
621.3000;0.8694;0.5416;
621.6000;0.8710;0.5441;
621.9000;0.8669;0.5441;
622.2000;0.8661;0.5391;
622.5000;0.8637;0.5365;
622.8000;0.8604;0.5290;
623.1000;0.8604;0.5441;
623.4000;0.8588;0.5441;
623.7000;0.8563;0.5416;
624.0000;0.8563;0.5466;
624.3000;0.8523;0.5542;
624.6000;0.8531;0.5592;
624.9000;0.8514;0.5416;
625.2000;0.8498;0.5491;
625.5000;0.8474;0.5491;
625.8000;0.8482;0.5592;
626.1000;0.8441;0.5491;
626.4000;0.8449;0.5668;
626.7000;0.8409;0.5592;
627.0000;0.8392;0.5592;
627.3000;0.8409;0.5592;
627.6000;0.8417;0.5567;
627.9000;0.8360;0.5391;
628.2000;0.8409;0.5517;
628.5000;0.8335;0.5491;
628.8000;0.8335;0.5491;
629.1000;0.8319;0.5491;
629.4000;0.8303;0.5517;
629.7000;0.8295;0.5592;
630.0000;0.8262;0.5542;
630.3000;0.8262;0.5567;
630.6000;0.8246;0.5517;
630.9000;0.8230;0.5466;
631.2000;0.8213;0.5441;
631.5000;0.8181;0.5466;
631.8000;0.8213;0.5491;
632.1000;0.8164;0.5441;
632.4000;0.8173;0.5567;
632.7000;0.8164;0.5567;
633.0000;0.8156;0.5617;
633.3000;0.8132;0.5693;
633.6000;0.8107;0.5567;
633.9000;0.8140;0.5617;
634.2000;0.8107;0.5592;
634.5000;0.8116;0.5491;
634.8000;0.8083;0.5365;
635.1000;0.8164;0.5617;
635.4000;0.8116;0.5441;
635.7000;0.8018;0.5139;
636.0000;0.8050;0.5290;
636.3000;0.8034;0.5265;
636.6000;0.8050;0.5265;
636.9000;0.8018;0.5265;
637.2000;0.8002;0.5315;
637.5000;0.8034;0.5340;
637.8000;0.7985;0.5214;
638.1000;0.7985;0.5164;
638.4000;0.7896;0.5038;
638.7000;0.7953;0.5265;
639.0000;0.7953;0.5416;
639.3000;0.7945;0.5391;
639.6000;0.7855;0.5164;
639.9000;0.7912;0.5340;
640.2000;0.7928;0.5365;
640.5000;0.7896;0.5340;
640.8000;0.7871;0.5315;
641.1000;0.7896;0.5315;
641.4000;0.7904;0.5340;
641.7000;0.7888;0.5416;
642.0000;0.7871;0.5340;
642.3000;0.7863;0.5315;
642.6000;0.7839;0.5315;
642.9000;0.7855;0.5416;
643.2000;0.7847;0.5290;
643.5000;0.7831;0.5265;
643.8000;0.7823;0.5139;
644.1000;0.7831;0.5164;
644.4000;0.7831;0.5240;
644.7000;0.7814;0.5214;
645.0000;0.7782;0.5189;
645.3000;0.7790;0.5240;
645.6000;0.7774;0.5240;
645.9000;0.7774;0.5365;
646.2000;0.7774;0.5340;
646.5000;0.7725;0.5240;
646.8000;0.7766;0.5391;
647.1000;0.7749;0.5365;
647.4000;0.7749;0.5416;
647.7000;0.7733;0.5466;
648.0000;0.7709;0.5391;
648.3000;0.7717;0.5365;
648.6000;0.7717;0.5290;
648.9000;0.7684;0.5240;
649.2000;0.7700;0.5265;
649.5000;0.7700;0.5315;
649.8000;0.7660;0.5315;
650.1000;0.7668;0.5416;
650.4000;0.7676;0.5441;
650.7000;0.7725;0.5643;
651.0000;0.7660;0.5441;
651.3000;0.7652;0.5365;
651.6000;0.7635;0.5365;
651.9000;0.7635;0.5391;
652.2000;0.7619;0.5416;
652.5000;0.7603;0.5290;
652.8000;0.7586;0.5214;
653.1000;0.7611;0.5340;
653.4000;0.7595;0.5416;
653.7000;0.7578;0.5416;
654.0000;0.7578;0.5466;
654.3000;0.7595;0.5567;
654.6000;0.7578;0.5466;
654.9000;0.7603;0.5491;
655.2000;0.7570;0.5517;
655.5000;0.7578;0.5643;
655.8000;0.7603;0.5617;
656.1000;0.7546;0.5441;
656.4000;0.7562;0.5466;
656.7000;0.7554;0.5416;
657.0000;0.7578;0.5668;
657.3000;0.7538;0.5567;
657.6000;0.7521;0.5592;
657.9000;0.7464;0.5466;
658.2000;0.7513;0.5542;
658.5000;0.7497;0.5567;
658.8000;0.7497;0.5542;
659.1000;0.7505;0.5643;
659.4000;0.7530;0.5693;
659.7000;0.7489;0.5567;
660.0000;0.7481;0.5542;
660.3000;0.7481;0.5491;
660.6000;0.7489;0.5466;
660.9000;0.7481;0.5441;
661.2000;0.7464;0.5391;
661.5000;0.7456;0.5391;
661.8000;0.7440;0.5466;
662.1000;0.7440;0.5391;
662.4000;0.7383;0.5240;
662.7000;0.7416;0.5391;
663.0000;0.7407;0.5290;
663.3000;0.7432;0.5491;
663.6000;0.7407;0.5491;
663.9000;0.7473;0.5592;
664.2000;0.7407;0.5466;
664.5000;0.7399;0.5491;
664.8000;0.7407;0.5542;
665.1000;0.7399;0.5466;
665.4000;0.7383;0.5391;
665.7000;0.7391;0.5416;
666.0000;0.7391;0.5391;
666.3000;0.7383;0.5365;
666.6000;0.7367;0.5315;
666.9000;0.7391;0.5391;
667.2000;0.7375;0.5416;
667.5000;0.7375;0.5466;
667.8000;0.7383;0.5491;
668.1000;0.7367;0.5542;
668.4000;0.7375;0.5592;
668.7000;0.7359;0.5542;
669.0000;0.7350;0.5517;
669.3000;0.7318;0.5441;
669.6000;0.7359;0.5491;
669.9000;0.7359;0.5441;
670.2000;0.7407;0.5542;
670.5000;0.7334;0.5340;
670.8000;0.7350;0.5315;
671.1000;0.7318;0.5214;
671.4000;0.7334;0.5240;
671.7000;0.7310;0.5240;
672.0000;0.7318;0.5315;
672.3000;0.7326;0.5340;
672.6000;0.7302;0.5340;
672.9000;0.7293;0.5365;
673.2000;0.7261;0.5214;
673.5000;0.7261;0.5214;
673.8000;0.7253;0.5240;
674.1000;0.7269;0.5290;
674.4000;0.7277;0.5315;
674.7000;0.7277;0.5365;
675.0000;0.7253;0.5315;
675.3000;0.7277;0.5315;
675.6000;0.7261;0.5290;
675.9000;0.7261;0.5340;
676.2000;0.7269;0.5491;
676.5000;0.7236;0.5416;
676.8000;0.7236;0.5365;
677.1000;0.7188;0.5290;
677.4000;0.7245;0.5441;
677.7000;0.7228;0.5391;
678.0000;0.7212;0.5365;
678.3000;0.7236;0.5391;
678.6000;0.7220;0.5466;
678.9000;0.7245;0.5441;
679.2000;0.7293;0.5567;
679.5000;0.7220;0.5441;
679.8000;0.7245;0.5466;
680.1000;0.7220;0.5315;
680.4000;0.7220;0.5391;
680.7000;0.7188;0.5340;
681.0000;0.7212;0.5491;
681.3000;0.7220;0.5466;
681.6000;0.7204;0.5365;
681.9000;0.7204;0.5365;
682.2000;0.7171;0.5290;
682.5000;0.7188;0.5265;
682.8000;0.7188;0.5315;
683.1000;0.7179;0.5340;
683.4000;0.7163;0.5315;
683.7000;0.7179;0.5391;
684.0000;0.7155;0.5391;
684.3000;0.7179;0.5365;
684.6000;0.7163;0.5290;
684.9000;0.7163;0.5214;
685.2000;0.7163;0.5214;
685.5000;0.7204;0.5290;
685.8000;0.7155;0.5265;
686.1000;0.7155;0.5214;
686.4000;0.7147;0.5214;
686.7000;0.7131;0.5240;
687.0000;0.7139;0.5265;
687.3000;0.7114;0.5265;
687.6000;0.7196;0.5441;
687.9000;0.7131;0.5365;
688.2000;0.7123;0.5340;
688.5000;0.7123;0.5365;
688.8000;0.7123;0.5365;
689.1000;0.7131;0.5365;
689.4000;0.7106;0.5240;
689.7000;0.7106;0.5265;
690.0000;0.7098;0.5315;
690.3000;0.7123;0.5416;
690.6000;0.7106;0.5290;
690.9000;0.7098;0.5391;
691.2000;0.7123;0.5491;
691.5000;0.7131;0.5466;
691.8000;0.7106;0.5365;
692.1000;0.7106;0.5290;
692.4000;0.7090;0.5265;
692.7000;0.7114;0.5290;
693.0000;0.7090;0.5290;
693.3000;0.7017;0.5114;
693.6000;0.7098;0.5340;
693.9000;0.7066;0.5240;
694.2000;0.7123;0.5340;
694.5000;0.7074;0.5265;
694.8000;0.7000;0.5139;
695.1000;0.7082;0.5315;
695.4000;0.7066;0.5265;
695.7000;0.7074;0.5240;
696.0000;0.7066;0.5214;
696.3000;0.7066;0.5290;
696.6000;0.7090;0.5340;
696.9000;0.7082;0.5315;
697.2000;0.7041;0.5164;
697.5000;0.7025;0.5063;
697.8000;0.7033;0.5139;
698.1000;0.7025;0.5214;
698.4000;0.7033;0.5189;
698.7000;0.7017;0.5189;
699.0000;0.7033;0.5265;
699.3000;0.7009;0.5315;
699.6000;0.7033;0.5441;
699.9000;0.7017;0.5466;
700.2000;0.7009;0.5466;
700.5000;0.7074;0.5567;
700.8000;0.7025;0.5441;
701.1000;0.7017;0.5365;
701.4000;0.7025;0.5365;
701.7000;0.7025;0.5391;
702.0000;0.7000;0.5340;
702.3000;0.7000;0.5365;
702.6000;0.7000;0.5365;
702.9000;0.6992;0.5290;
703.2000;0.6968;0.5265;
703.5000;0.6992;0.5315;
703.8000;0.6992;0.5315;
704.1000;0.6992;0.5441;
704.4000;0.6984;0.5365;
704.7000;0.6976;0.5391;
705.0000;0.6960;0.5365;
705.3000;0.6984;0.5391;
705.6000;0.6976;0.5290;
705.9000;0.6984;0.5265;
706.2000;0.6968;0.5265;
706.5000;0.6976;0.5290;
706.8000;0.6992;0.5265;
707.1000;0.6968;0.5290;
707.4000;0.6870;0.5038;
707.7000;0.6976;0.5265;
708.0000;0.6952;0.5038;
708.3000;0.6960;0.5088;
708.6000;0.6952;0.5063;
708.9000;0.6960;0.5088;
709.2000;0.6968;0.5038;
709.5000;0.6960;0.5088;
709.8000;0.6952;0.5114;
710.1000;0.6952;0.5214;
710.4000;0.6976;0.5265;
710.7000;0.6968;0.5265;
711.0000;0.6952;0.5315;
711.3000;0.6943;0.5340;
711.6000;0.6952;0.5441;
711.9000;0.6911;0.5391;
712.2000;0.6927;0.5391;
712.5000;0.6927;0.5340;
712.8000;0.6935;0.5391;
713.1000;0.6943;0.5365;
713.4000;0.6927;0.5290;
713.7000;0.6943;0.5340;
714.0000;0.6927;0.5340;
714.3000;0.6935;0.5315;
714.6000;0.6935;0.5315;
714.9000;0.6952;0.5290;
715.2000;0.6927;0.5240;
715.5000;0.6935;0.5214;
715.8000;0.6943;0.5265;
716.1000;0.6927;0.5164;
716.4000;0.6903;0.5214;
716.7000;0.6927;0.5265;
717.0000;0.6935;0.5315;
717.3000;0.6911;0.5340;
717.6000;0.6911;0.5340;
717.9000;0.6903;0.5315;
718.2000;0.6919;0.5340;
718.5000;0.6903;0.5214;
718.8000;0.6862;0.5189;
719.1000;0.6895;0.5365;
719.4000;0.6895;0.5340;
719.7000;0.6919;0.5340;
720.0000;0.6886;0.5265;
720.3000;0.6878;0.5240;
720.6000;0.6878;0.5214;
720.9000;0.6911;0.5315;
721.2000;0.6919;0.5491;
721.5000;0.6895;0.5365;
721.8000;0.6903;0.5290;
722.1000;0.6886;0.5240;
722.4000;0.6870;0.5240;
722.7000;0.6870;0.5265;
723.0000;0.6870;0.5265;
723.3000;0.6878;0.5340;
723.6000;0.6878;0.5340;
723.9000;0.6870;0.5290;
724.2000;0.6862;0.5315;
724.5000;0.6895;0.5416;
724.8000;0.6870;0.5315;
725.1000;0.6895;0.5365;
725.4000;0.6870;0.5416;
725.7000;0.6878;0.5466;
726.0000;0.6886;0.5466;
726.3000;0.6862;0.5491;
726.6000;0.6878;0.5441;
726.9000;0.6854;0.5365;
727.2000;0.6903;0.5491;
727.5000;0.6878;0.5391;
727.8000;0.6862;0.5416;
728.1000;0.6862;0.5441;
728.4000;0.6870;0.5416;
728.7000;0.6846;0.5340;
729.0000;0.6895;0.5542;
729.3000;0.6854;0.5416;
729.6000;0.6846;0.5416;
729.9000;0.6846;0.5466;
730.2000;0.6821;0.5365;
730.5000;0.6846;0.5517;
730.8000;0.6838;0.5517;
731.1000;0.6838;0.5567;
731.4000;0.6838;0.5617;
731.7000;0.6846;0.5517;
732.0000;0.6838;0.5416;
732.3000;0.6846;0.5466;
732.6000;0.6838;0.5441;
732.9000;0.6838;0.5466;
733.2000;0.6829;0.5466;
733.5000;0.6829;0.5441;
733.8000;0.6829;0.5416;
734.1000;0.6821;0.5240;
734.4000;0.6821;0.5214;
734.7000;0.6838;0.5214;
735.0000;0.6838;0.5214;
735.3000;0.6805;0.5164;
735.6000;0.6813;0.5214;
735.9000;0.6813;0.5290;
736.2000;0.6838;0.5365;
736.5000;0.6797;0.5265;
736.8000;0.6862;0.5441;
737.1000;0.6821;0.5315;
737.4000;0.6813;0.5315;
737.7000;0.6838;0.5416;
738.0000;0.6821;0.5290;
738.3000;0.6813;0.5240;
738.6000;0.6903;0.5466;
738.9000;0.6813;0.5189;
739.2000;0.6813;0.5164;
739.5000;0.6732;0.4988;
739.8000;0.6805;0.5214;
740.1000;0.6797;0.5214;
740.4000;0.6764;0.5164;
740.7000;0.6789;0.5164;
741.0000;0.6805;0.5164;
741.3000;0.6829;0.5265;
741.6000;0.6805;0.5290;
741.9000;0.6789;0.5340;
742.2000;0.6756;0.5265;
742.5000;0.6813;0.5365;
742.8000;0.6797;0.5340;
743.1000;0.6789;0.5240;
743.4000;0.6797;0.5315;
743.7000;0.6789;0.5365;
744.0000;0.6781;0.5340;
744.3000;0.6781;0.5265;
744.6000;0.6772;0.5290;
744.9000;0.6781;0.5365;
745.2000;0.6789;0.5391;
745.5000;0.6789;0.5441;
745.8000;0.6756;0.5340;
746.1000;0.6789;0.5416;
746.4000;0.6789;0.5466;
746.7000;0.6781;0.5416;
747.0000;0.6772;0.5416;
747.3000;0.6772;0.5491;
747.6000;0.6789;0.5441;
747.9000;0.6772;0.5466;
748.2000;0.6772;0.5466;
748.5000;0.6781;0.5517;
748.8000;0.6789;0.5466;
749.1000;0.6772;0.5491;
749.4000;0.6756;0.5391;
749.7000;0.6764;0.5265;
750.0000;0.6756;0.5214;
750.3000;0.6764;0.5240;
750.6000;0.6740;0.5340;
750.9000;0.6772;0.5416;
751.2000;0.6748;0.5517;
751.5000;0.6789;0.5567;
751.8000;0.6756;0.5491;
752.1000;0.6756;0.5491;
752.4000;0.6756;0.5491;
752.7000;0.6756;0.5517;
753.0000;0.6797;0.5693;
753.3000;0.6797;0.5668;
753.6000;0.6756;0.5567;
753.9000;0.6740;0.5643;
754.2000;0.6748;0.5542;
754.5000;0.6821;0.5592;
754.8000;0.6748;0.5340;
755.1000;0.6781;0.5441;
755.4000;0.6716;0.5340;
755.7000;0.6748;0.5441;
756.0000;0.6740;0.5517;
756.3000;0.6756;0.5517;
756.6000;0.6748;0.5491;
756.9000;0.6716;0.5416;
757.2000;0.6732;0.5365;
757.5000;0.6732;0.5365;
757.8000;0.6781;0.5491;
758.1000;0.6740;0.5340;
758.4000;0.6732;0.5340;
758.7000;0.6805;0.5491;
759.0000;0.6724;0.5240;
759.3000;0.6748;0.5340;
759.6000;0.6683;0.5164;
759.9000;0.6724;0.5290;
760.2000;0.6748;0.5340;
760.5000;0.6740;0.5365;
760.8000;0.6707;0.5265;
761.1000;0.6724;0.5214;
761.4000;0.6724;0.5265;
761.7000;0.6748;0.5416;
762.0000;0.6724;0.5315;
762.3000;0.6716;0.5240;
762.6000;0.6740;0.5290;
762.9000;0.6732;0.5214;
763.2000;0.6732;0.5164;
763.5000;0.6707;0.5139;
763.8000;0.6683;0.5088;
764.1000;0.6724;0.5240;
764.4000;0.6740;0.5240;
764.7000;0.6740;0.5265;
765.0000;0.6716;0.5240;
765.3000;0.6764;0.5290;
765.6000;0.6797;0.5416;
765.9000;0.6740;0.5315;
766.2000;0.6724;0.5265;
766.5000;0.6667;0.5114;
766.8000;0.6707;0.5240;
767.1000;0.6691;0.5189;
767.4000;0.6699;0.5290;
767.7000;0.6797;0.5567;
768.0000;0.6707;0.5340;
768.3000;0.6716;0.5365;
768.6000;0.6707;0.5391;
768.9000;0.6707;0.5365;
769.2000;0.6683;0.5290;
769.5000;0.6707;0.5365;
769.8000;0.6691;0.5365;
770.1000;0.6699;0.5391;
770.4000;0.6707;0.5416;
770.7000;0.6683;0.5466;
771.0000;0.6699;0.5466;
771.3000;0.6732;0.5441;
771.6000;0.6699;0.5315;
771.9000;0.6707;0.5290;
772.2000;0.6667;0.5290;
772.5000;0.6716;0.5315;
772.8000;0.6732;0.5365;
773.1000;0.6732;0.5315;
773.4000;0.6716;0.5240;
773.7000;0.6716;0.5189;
774.0000;0.6659;0.4962;
774.3000;0.6724;0.5164;
774.6000;0.6699;0.5038;
774.9000;0.6683;0.5063;
775.2000;0.6675;0.5038;
775.5000;0.6724;0.5164;
775.8000;0.6691;0.5164;
776.1000;0.6618;0.5038;
776.4000;0.6683;0.5139;
776.7000;0.6699;0.5290;
777.0000;0.6683;0.5290;
777.3000;0.6667;0.5240;
777.6000;0.6683;0.5315;
777.9000;0.6691;0.5391;
778.2000;0.6691;0.5466;
778.5000;0.6691;0.5391;
778.8000;0.6683;0.5391;
779.1000;0.6650;0.5391;
779.4000;0.6667;0.5365;
779.7000;0.6667;0.5340;
780.0000;0.6659;0.5240;
780.3000;0.6667;0.5189;
780.6000;0.6675;0.5189;
780.9000;0.6675;0.5164;
781.2000;0.6667;0.5063;
781.5000;0.6675;0.5088;
781.8000;0.6667;0.5139;
782.1000;0.6675;0.5240;
782.4000;0.6667;0.5189;
782.7000;0.6650;0.5214;
783.0000;0.6650;0.5265;
783.3000;0.6683;0.5416;
783.6000;0.6716;0.5441;
783.9000;0.6683;0.5365;
784.2000;0.6667;0.5365;
784.5000;0.6675;0.5441;
784.8000;0.6667;0.5517;
785.1000;0.6650;0.5517;
785.4000;0.6650;0.5491;
785.7000;0.6667;0.5491;
786.0000;0.6659;0.5567;
786.3000;0.6667;0.5592;
786.6000;0.6659;0.5567;
786.9000;0.6675;0.5567;
787.2000;0.6675;0.5441;
787.5000;0.6667;0.5416;
787.8000;0.6659;0.5416;
788.1000;0.6667;0.5441;
788.4000;0.6642;0.5365;
788.7000;0.6667;0.5542;
789.0000;0.6659;0.5643;
789.3000;0.6610;0.5517;
789.6000;0.6626;0.5617;
789.9000;0.6659;0.5693;
790.2000;0.6634;0.5643;
790.5000;0.6642;0.5617;
790.8000;0.6626;0.5592;
791.1000;0.6650;0.5567;
791.4000;0.6659;0.5592;
791.7000;0.6699;0.5693;
792.0000;0.6642;0.5517;
792.3000;0.6642;0.5592;
792.6000;0.6642;0.5693;
792.9000;0.6634;0.5617;
793.2000;0.6642;0.5668;
793.5000;0.6659;0.5668;
793.8000;0.6650;0.5643;
794.1000;0.6667;0.5668;
794.4000;0.6642;0.5567;
794.7000;0.6634;0.5567;
795.0000;0.6634;0.5466;
795.3000;0.6626;0.5441;
795.6000;0.6618;0.5416;
795.9000;0.6634;0.5542;
796.2000;0.6642;0.5491;
796.5000;0.6634;0.5517;
796.8000;0.6626;0.5491;
797.1000;0.6675;0.5668;
797.4000;0.6618;0.5491;
797.7000;0.6634;0.5491;
798.0000;0.6634;0.5441;
798.3000;0.6642;0.5441;
798.6000;0.6642;0.5466;
798.9000;0.6626;0.5365;
799.2000;0.6577;0.5240;
799.5000;0.6618;0.5340;
799.8000;0.6626;0.5290;
800.1000;0.6634;0.5315;
800.4000;0.6683;0.5491;
800.7000;0.6602;0.5290;
801.0000;0.6634;0.5290;
801.3000;0.6593;0.5240;
801.6000;0.6634;0.5365;
801.9000;0.6610;0.5365;
802.2000;0.6634;0.5416;
802.5000;0.6642;0.5365;
802.8000;0.6610;0.5240;
803.1000;0.6593;0.5164;
803.4000;0.6634;0.5265;
803.7000;0.6650;0.5441;
804.0000;0.6634;0.5365;
804.3000;0.6626;0.5340;
804.6000;0.6642;0.5365;
804.9000;0.6634;0.5315;
805.2000;0.6634;0.5290;
805.5000;0.6618;0.5214;
805.8000;0.6602;0.5164;
806.1000;0.6593;0.5139;
806.4000;0.6610;0.5214;
806.7000;0.6634;0.5340;
807.0000;0.6610;0.5315;
807.3000;0.6618;0.5391;
807.6000;0.6634;0.5340;
807.9000;0.6618;0.5240;
808.2000;0.6610;0.5214;
808.5000;0.6626;0.5139;
808.8000;0.6634;0.5063;
809.1000;0.6634;0.5088;
809.4000;0.6634;0.5164;
809.7000;0.6610;0.5164;
810.0000;0.6634;0.5240;
810.3000;0.6577;0.5088;
810.6000;0.6610;0.5214;
810.9000;0.6593;0.5139;
811.2000;0.6593;0.5114;
811.5000;0.6626;0.5114;
811.8000;0.6602;0.5114;
812.1000;0.6593;0.5214;
812.4000;0.6602;0.5315;
812.7000;0.6618;0.5441;
813.0000;0.6593;0.5416;
813.3000;0.6528;0.5290;
813.6000;0.6585;0.5416;
813.9000;0.6602;0.5517;
814.2000;0.6610;0.5542;
814.5000;0.6667;0.5592;
814.8000;0.6593;0.5441;
815.1000;0.6602;0.5416;
815.4000;0.6602;0.5491;
815.7000;0.6602;0.5542;
816.0000;0.6593;0.5466;
816.3000;0.6602;0.5491;
816.6000;0.6593;0.5466;
816.9000;0.6593;0.5391;
817.2000;0.6618;0.5416;
817.5000;0.6585;0.5391;
817.8000;0.6602;0.5517;
818.1000;0.6602;0.5542;
818.4000;0.6593;0.5542;
818.7000;0.6610;0.5542;
819.0000;0.6618;0.5643;
819.3000;0.6602;0.5693;
819.6000;0.6610;0.5743;
819.9000;0.6593;0.5668;
820.2000;0.6602;0.5718;
820.5000;0.6602;0.5693;
820.8000;0.6585;0.5617;
821.1000;0.6602;0.5617;
821.4000;0.6577;0.5592;
821.7000;0.6593;0.5567;
822.0000;0.6585;0.5592;
822.3000;0.6577;0.5517;
822.6000;0.6585;0.5491;
822.9000;0.6585;0.5542;
823.2000;0.6569;0.5517;
823.5000;0.6545;0.5491;
823.8000;0.6585;0.5542;
824.1000;0.6569;0.5416;
824.4000;0.6577;0.5416;
824.7000;0.6585;0.5491;
825.0000;0.6593;0.5592;
825.3000;0.6577;0.5668;
825.6000;0.6593;0.5743;
825.9000;0.6577;0.5743;
826.2000;0.6569;0.5693;
826.5000;0.6585;0.5668;
826.8000;0.6585;0.5769;
827.1000;0.6593;0.5794;
827.4000;0.6577;0.5794;
827.7000;0.6585;0.5794;
828.0000;0.6642;0.5869;
828.3000;0.6569;0.5668;
828.6000;0.6593;0.5693;
828.9000;0.6585;0.5668;
829.2000;0.6593;0.5668;
829.5000;0.6593;0.5592;
829.8000;0.6585;0.5466;
830.1000;0.6585;0.5391;
830.4000;0.6593;0.5391;
830.7000;0.6569;0.5290;
831.0000;0.6585;0.5340;
831.3000;0.6545;0.5365;
831.6000;0.6577;0.5365;
831.9000;0.6593;0.5365;
832.2000;0.6561;0.5391;
832.5000;0.6577;0.5466;
832.8000;0.6569;0.5617;
833.1000;0.6618;0.5718;
833.4000;0.6569;0.5592;
833.7000;0.6569;0.5542;
834.0000;0.6569;0.5617;
834.3000;0.6528;0.5466;
834.6000;0.6561;0.5466;
834.9000;0.6585;0.5643;
835.2000;0.6536;0.5542;
835.5000;0.6569;0.5718;
835.8000;0.6569;0.5718;
836.1000;0.6545;0.5718;
836.4000;0.6553;0.5743;
836.7000;0.6561;0.5718;
837.0000;0.6561;0.5592;
837.3000;0.6561;0.5517;
837.6000;0.6561;0.5592;
837.9000;0.6545;0.5542;
838.2000;0.6585;0.5567;
838.5000;0.6561;0.5491;
838.8000;0.6561;0.5391;
839.1000;0.6569;0.5340;
839.4000;0.6577;0.5391;
839.7000;0.6569;0.5441;
840.0000;0.6553;0.5391;
840.3000;0.6561;0.5416;
840.6000;0.6561;0.5567;
840.9000;0.6585;0.5517;
841.2000;0.6561;0.5491;
841.5000;0.6561;0.5542;
841.8000;0.6569;0.5592;
842.1000;0.6569;0.5517;
842.4000;0.6561;0.5542;
842.7000;0.6545;0.5567;
843.0000;0.6545;0.5668;
843.3000;0.6536;0.5668;
843.6000;0.6561;0.5743;
843.9000;0.6553;0.5743;
844.2000;0.6545;0.5668;
844.5000;0.6626;0.5894;
844.8000;0.6593;0.5769;
845.1000;0.6553;0.5769;
845.4000;0.6536;0.5743;
845.7000;0.6553;0.5819;
846.0000;0.6545;0.5819;
846.3000;0.6504;0.5743;
846.6000;0.6545;0.5769;
846.9000;0.6553;0.5769;
847.2000;0.6561;0.5718;
847.5000;0.6618;0.5844;
847.8000;0.6545;0.5617;
848.1000;0.6553;0.5617;
848.4000;0.6569;0.5643;
848.7000;0.6553;0.5567;
849.0000;0.6569;0.5668;
849.3000;0.6520;0.5517;
849.6000;0.6536;0.5567;
849.9000;0.6528;0.5567;
850.2000;0.6528;0.5643;
850.5000;0.6545;0.5617;
850.8000;0.6536;0.5517;
851.1000;0.6553;0.5542;
851.4000;0.6553;0.5567;
851.7000;0.6545;0.5517;
852.0000;0.6545;0.5542;
852.3000;0.6553;0.5517;
852.6000;0.6545;0.5517;
852.9000;0.6545;0.5567;
853.2000;0.6536;0.5592;
853.5000;0.6528;0.5542;
853.8000;0.6545;0.5567;
854.1000;0.6553;0.5769;
854.4000;0.6561;0.5718;
854.7000;0.6561;0.5693;
855.0000;0.6561;0.5743;
855.3000;0.6561;0.5693;
855.6000;0.6561;0.5693;
855.9000;0.6569;0.5693;
856.2000;0.6545;0.5718;
856.5000;0.6536;0.5668;
856.8000;0.6528;0.5517;
857.1000;0.6536;0.5491;
857.4000;0.6545;0.5416;
857.7000;0.6536;0.5391;
858.0000;0.6528;0.5365;
858.3000;0.6528;0.5340;
858.6000;0.6512;0.5340;
858.9000;0.6528;0.5391;
859.2000;0.6536;0.5491;
859.5000;0.6496;0.5491;
859.8000;0.6528;0.5517;
860.1000;0.6545;0.5542;
860.4000;0.6504;0.5416;
860.7000;0.6520;0.5491;
861.0000;0.6536;0.5517;
861.3000;0.6520;0.5491;
861.6000;0.6520;0.5567;
861.9000;0.6536;0.5617;
862.2000;0.6536;0.5643;
862.5000;0.6545;0.5668;
862.8000;0.6512;0.5643;
863.1000;0.6545;0.5592;
863.4000;0.6536;0.5592;
863.7000;0.6545;0.5592;
864.0000;0.6569;0.5643;
864.3000;0.6528;0.5617;
864.6000;0.6528;0.5643;
864.9000;0.6545;0.5592;
865.2000;0.6545;0.5592;
865.5000;0.6520;0.5517;
865.8000;0.6504;0.5391;
866.1000;0.6528;0.5441;
866.4000;0.6528;0.5416;
866.7000;0.6528;0.5391;
867.0000;0.6504;0.5315;
867.3000;0.6536;0.5416;
867.6000;0.6536;0.5491;
867.9000;0.6512;0.5441;
868.2000;0.6528;0.5592;
868.5000;0.6536;0.5592;
868.8000;0.6504;0.5542;
869.1000;0.6504;0.5441;
869.4000;0.6471;0.5391;
869.7000;0.6528;0.5592;
870.0000;0.6512;0.5567;
870.3000;0.6463;0.5416;
870.6000;0.6488;0.5592;
870.9000;0.6520;0.5617;
871.2000;0.6496;0.5617;
871.5000;0.6520;0.5693;
871.8000;0.6504;0.5668;
872.1000;0.6528;0.5718;
872.4000;0.6504;0.5592;
872.7000;0.6520;0.5542;
873.0000;0.6512;0.5542;
873.3000;0.6520;0.5517;
873.6000;0.6496;0.5491;
873.9000;0.6528;0.5491;
874.2000;0.6520;0.5491;
874.5000;0.6520;0.5466;
874.8000;0.6528;0.5517;
875.1000;0.6528;0.5567;
875.4000;0.6520;0.5617;
875.7000;0.6512;0.5567;
876.0000;0.6512;0.5517;
876.3000;0.6496;0.5391;
876.6000;0.6536;0.5517;
876.9000;0.6520;0.5567;
877.2000;0.6520;0.5668;
877.5000;0.6528;0.5643;
877.8000;0.6520;0.5617;
878.1000;0.6520;0.5643;
878.4000;0.6479;0.5466;
878.7000;0.6561;0.5718;
879.0000;0.6528;0.5617;
879.3000;0.6536;0.5617;
879.6000;0.6504;0.5567;
879.9000;0.6488;0.5668;
880.2000;0.6504;0.5617;
880.5000;0.6536;0.5668;
880.8000;0.6447;0.5567;
881.1000;0.6512;0.5617;
881.4000;0.6520;0.5617;
881.7000;0.6520;0.5668;
882.0000;0.6520;0.5718;
882.3000;0.6520;0.5643;
882.6000;0.6520;0.5693;
882.9000;0.6520;0.5794;
883.2000;0.6512;0.5769;
883.5000;0.6512;0.5693;
883.8000;0.6520;0.5743;
884.1000;0.6520;0.5819;
884.4000;0.6536;0.5844;
884.7000;0.6479;0.5769;
885.0000;0.6520;0.5844;
885.3000;0.6496;0.5794;
885.6000;0.6528;0.5869;
885.9000;0.6512;0.5794;
886.2000;0.6512;0.5819;
886.5000;0.6512;0.5794;
886.8000;0.6455;0.5668;
887.1000;0.6512;0.5769;
887.4000;0.6504;0.5819;
887.7000;0.6512;0.5894;
888.0000;0.6488;0.5844;
888.3000;0.6512;0.5794;
888.6000;0.6520;0.5819;
888.9000;0.6447;0.5693;
889.2000;0.6520;0.5844;
889.5000;0.6512;0.5970;
889.8000;0.6504;0.6046;
890.1000;0.6496;0.6071;
890.4000;0.6488;0.6071;
890.7000;0.6504;0.6121;
891.0000;0.6520;0.6071;
891.3000;0.6496;0.5970;
891.6000;0.6512;0.5844;
891.9000;0.6528;0.5819;
892.2000;0.6488;0.5718;
892.5000;0.6504;0.5718;
892.8000;0.6520;0.5844;
893.1000;0.6463;0.5718;
893.4000;0.6504;0.5743;
893.7000;0.6447;0.5617;
894.0000;0.6545;0.5794;
894.3000;0.6512;0.5643;
894.6000;0.6504;0.5567;
894.9000;0.6504;0.5567;
895.2000;0.6504;0.5643;
895.5000;0.6488;0.5743;
895.8000;0.6512;0.5769;
896.1000;0.6504;0.5769;
896.4000;0.6512;0.5819;
896.7000;0.6496;0.5743;
897.0000;0.6504;0.5743;
897.3000;0.6496;0.5819;
897.6000;0.6488;0.5718;
897.9000;0.6496;0.5693;
898.2000;0.6488;0.5668;
898.5000;0.6488;0.5718;
898.8000;0.6488;0.5743;
899.1000;0.6479;0.5743;
899.4000;0.6488;0.5769;
899.7000;0.6496;0.5794;
900.0000;0.6504;0.5743;
900.3000;0.6488;0.5743;
900.6000;0.6479;0.5668;
900.9000;0.6504;0.5693;
901.2000;0.6488;0.5668;
901.5000;0.6471;0.5668;
901.8000;0.6463;0.5592;
902.1000;0.6479;0.5592;
902.4000;0.6512;0.5643;
902.7000;0.6479;0.5567;
903.0000;0.6504;0.5643;
903.3000;0.6439;0.5491;
903.6000;0.6488;0.5643;
903.9000;0.6553;0.5693;
904.2000;0.6528;0.5643;
904.5000;0.6504;0.5617;
904.8000;0.6577;0.5894;
905.1000;0.6496;0.5668;
905.4000;0.6496;0.5617;
905.7000;0.6504;0.5668;
906.0000;0.6520;0.5743;
906.3000;0.6577;0.5894;
906.6000;0.6488;0.5693;
906.9000;0.6520;0.5794;
907.2000;0.6512;0.5668;
907.5000;0.6479;0.5592;
907.8000;0.6488;0.5567;
908.1000;0.6479;0.5542;
908.4000;0.6488;0.5517;
908.7000;0.6496;0.5592;
909.0000;0.6496;0.5617;
909.3000;0.6479;0.5643;
909.6000;0.6496;0.5693;
909.9000;0.6488;0.5743;
910.2000;0.6496;0.5794;
910.5000;0.6488;0.5769;
910.8000;0.6569;0.6020;
911.1000;0.6504;0.5819;
911.4000;0.6504;0.5794;
911.7000;0.6520;0.5794;
912.0000;0.6463;0.5643;
912.3000;0.6512;0.5668;
912.6000;0.6455;0.5491;
912.9000;0.6488;0.5592;
913.2000;0.6520;0.5668;
913.5000;0.6479;0.5668;
913.8000;0.6488;0.5643;
914.1000;0.6504;0.5668;
914.4000;0.6471;0.5542;
914.7000;0.6471;0.5643;
915.0000;0.6528;0.5894;
915.3000;0.6439;0.5668;
915.6000;0.6471;0.5567;
915.9000;0.6488;0.5643;
916.2000;0.6479;0.5643;
916.5000;0.6471;0.5668;
916.8000;0.6471;0.5617;
917.1000;0.6520;0.5743;
917.4000;0.6455;0.5592;
917.7000;0.6471;0.5718;
918.0000;0.6488;0.5819;
918.3000;0.6479;0.5844;
918.6000;0.6471;0.5743;
918.9000;0.6471;0.5693;
919.2000;0.6479;0.5643;
919.5000;0.6479;0.5617;
919.8000;0.6479;0.5592;
920.1000;0.6471;0.5592;
920.4000;0.6439;0.5517;
920.7000;0.6479;0.5668;
921.0000;0.6471;0.5668;
921.3000;0.6471;0.5718;
921.6000;0.6479;0.5769;
921.9000;0.6463;0.5794;
922.2000;0.6488;0.5844;
922.5000;0.6479;0.5894;
922.8000;0.6479;0.5844;
923.1000;0.6463;0.5819;
923.4000;0.6479;0.5794;
923.7000;0.6471;0.5743;
924.0000;0.6414;0.5592;
924.3000;0.6471;0.5718;
924.6000;0.6439;0.5668;
924.9000;0.6431;0.5592;
925.2000;0.6479;0.5769;
925.5000;0.6463;0.5718;
925.8000;0.6455;0.5769;
926.1000;0.6471;0.5769;
926.4000;0.6479;0.5693;
926.7000;0.6374;0.5441;
927.0000;0.6463;0.5718;
927.3000;0.6471;0.5718;
927.6000;0.6479;0.5693;
927.9000;0.6422;0.5743;
928.2000;0.6463;0.5819;
928.5000;0.6471;0.5869;
928.8000;0.6406;0.5819;
929.1000;0.6479;0.5945;
929.4000;0.6455;0.5869;
929.7000;0.6463;0.5920;
930.0000;0.6471;0.5894;
930.3000;0.6463;0.5794;
930.6000;0.6471;0.5869;
930.9000;0.6455;0.5869;
931.2000;0.6471;0.5945;
931.5000;0.6488;0.5920;
931.8000;0.6471;0.5794;
932.1000;0.6463;0.5794;
932.4000;0.6455;0.5844;
932.7000;0.6496;0.5995;
933.0000;0.6455;0.5894;
933.3000;0.6431;0.5844;
933.6000;0.6439;0.5769;
933.9000;0.6463;0.5718;
934.2000;0.6471;0.5743;
934.5000;0.6455;0.5743;
934.8000;0.6479;0.5794;
935.1000;0.6455;0.5693;
935.4000;0.6471;0.5819;
935.7000;0.6479;0.5769;
936.0000;0.6488;0.5693;
936.3000;0.6479;0.5718;
936.6000;0.6488;0.5743;
936.9000;0.6488;0.5769;
937.2000;0.6479;0.5819;
937.5000;0.6455;0.5794;
937.8000;0.6447;0.5769;
938.1000;0.6447;0.5718;
938.4000;0.6463;0.5743;
938.7000;0.6463;0.5894;
939.0000;0.6479;0.5844;
939.3000;0.6455;0.5693;
939.6000;0.6455;0.5693;
939.9000;0.6439;0.5643;
940.2000;0.6431;0.5542;
940.5000;0.6455;0.5617;
940.8000;0.6455;0.5617;
941.1000;0.6455;0.5617;
941.4000;0.6463;0.5693;
941.7000;0.6471;0.5743;
942.0000;0.6455;0.5794;
942.3000;0.6463;0.5769;
942.6000;0.6447;0.5718;
942.9000;0.6463;0.5869;
943.2000;0.6455;0.5894;
943.5000;0.6463;0.5894;
943.8000;0.6463;0.5844;
944.1000;0.6455;0.5794;
944.4000;0.6463;0.5743;
944.7000;0.6463;0.5718;
945.0000;0.6471;0.5668;
945.3000;0.6463;0.5643;
945.6000;0.6463;0.5693;
945.9000;0.6455;0.5668;
946.2000;0.6455;0.5668;
946.5000;0.6471;0.5567;
946.8000;0.6471;0.5567;
947.1000;0.6455;0.5592;
947.4000;0.6496;0.5794;
947.7000;0.6463;0.5743;
948.0000;0.6471;0.5743;
948.3000;0.6455;0.5643;
948.6000;0.6422;0.5592;
948.9000;0.6463;0.5643;
949.2000;0.6463;0.5617;
949.5000;0.6463;0.5643;
949.8000;0.6431;0.5567;
950.1000;0.6455;0.5592;
950.4000;0.6463;0.5668;
950.7000;0.6463;0.5693;
951.0000;0.6463;0.5718;
951.3000;0.6463;0.5819;
951.6000;0.6447;0.5844;
951.9000;0.6439;0.5769;
952.2000;0.6439;0.5743;
952.5000;0.6463;0.5693;
952.8000;0.6463;0.5643;
953.1000;0.6455;0.5718;
953.4000;0.6455;0.5819;
953.7000;0.6422;0.5743;
954.0000;0.6439;0.5743;
954.3000;0.6447;0.5769;
954.6000;0.6471;0.5844;
954.9000;0.6447;0.5769;
955.2000;0.6439;0.5643;
955.5000;0.6431;0.5668;
955.8000;0.6439;0.5794;
956.1000;0.6455;0.5769;
956.4000;0.6447;0.5743;
956.7000;0.6471;0.5769;
957.0000;0.6447;0.5693;
957.3000;0.6455;0.5769;
957.6000;0.6447;0.5869;
957.9000;0.6455;0.5844;
958.2000;0.6447;0.5693;
958.5000;0.6447;0.5668;
958.8000;0.6439;0.5592;
959.1000;0.6431;0.5567;
959.4000;0.6447;0.5491;
959.7000;0.6455;0.5592;
960.0000;0.6390;0.5466;
960.3000;0.6447;0.5617;
960.6000;0.6431;0.5617;
960.9000;0.6447;0.5617;
961.2000;0.6439;0.5643;
961.5000;0.6439;0.5693;
961.8000;0.6455;0.5643;
962.1000;0.6463;0.5693;
962.4000;0.6471;0.5693;
962.7000;0.6463;0.5592;
963.0000;0.6455;0.5542;
963.3000;0.6455;0.5567;
963.6000;0.6406;0.5441;
963.9000;0.6406;0.5491;
964.2000;0.6439;0.5517;
964.5000;0.6439;0.5466;
964.8000;0.6439;0.5391;
965.1000;0.6439;0.5416;
965.4000;0.6439;0.5441;
965.7000;0.6439;0.5466;
966.0000;0.6439;0.5466;
966.3000;0.6439;0.5466;
966.6000;0.6431;0.5416;
966.9000;0.6447;0.5441;
967.2000;0.6439;0.5466;
967.5000;0.6447;0.5466;
967.8000;0.6422;0.5491;
968.1000;0.6447;0.5592;
968.4000;0.6422;0.5491;
968.7000;0.6422;0.5542;
969.0000;0.6431;0.5643;
969.3000;0.6439;0.5693;
969.6000;0.6455;0.5617;
969.9000;0.6422;0.5567;
970.2000;0.6439;0.5517;
970.5000;0.6447;0.5542;
970.8000;0.6439;0.5567;
971.1000;0.6431;0.5592;
971.4000;0.6431;0.5542;
971.7000;0.6439;0.5542;
972.0000;0.6447;0.5567;
972.3000;0.6422;0.5542;
972.6000;0.6455;0.5592;
972.9000;0.6455;0.5542;
973.2000;0.6471;0.5668;
973.5000;0.6447;0.5592;
973.8000;0.6496;0.5794;
974.1000;0.6447;0.5592;
974.4000;0.6439;0.5592;
974.7000;0.6422;0.5491;
975.0000;0.6431;0.5517;
975.3000;0.6431;0.5617;
975.6000;0.6439;0.5592;
975.9000;0.6463;0.5592;
976.2000;0.6447;0.5617;
976.5000;0.6512;0.5844;
976.8000;0.6422;0.5643;
977.1000;0.6455;0.5718;
977.4000;0.6439;0.5718;
977.7000;0.6431;0.5743;
978.0000;0.6431;0.5693;
978.3000;0.6447;0.5769;
978.6000;0.6406;0.5668;
978.9000;0.6439;0.5693;
979.2000;0.6422;0.5693;
979.5000;0.6431;0.5693;
979.8000;0.6520;0.5844;
980.1000;0.6447;0.5567;
980.4000;0.6422;0.5567;
980.7000;0.6479;0.5693;
981.0000;0.6439;0.5567;
981.3000;0.6455;0.5693;
981.6000;0.6447;0.5693;
981.9000;0.6439;0.5668;
982.2000;0.6431;0.5592;
982.5000;0.6439;0.5668;
982.8000;0.6422;0.5693;
983.1000;0.6382;0.5517;
983.4000;0.6439;0.5668;
983.7000;0.6447;0.5668;
984.0000;0.6422;0.5592;
984.3000;0.6439;0.5643;
984.6000;0.6463;0.5668;
984.9000;0.6463;0.5668;
985.2000;0.6447;0.5643;
985.5000;0.6422;0.5567;
985.8000;0.6422;0.5567;
986.1000;0.6357;0.5365;
986.4000;0.6439;0.5542;
986.7000;0.6431;0.5441;
987.0000;0.6422;0.5491;
987.3000;0.6382;0.5491;
987.6000;0.6471;0.5794;
987.9000;0.6431;0.5643;
988.2000;0.6439;0.5693;
988.5000;0.6431;0.5693;
988.8000;0.6439;0.5693;
989.1000;0.6422;0.5769;
989.4000;0.6406;0.5743;
989.7000;0.6414;0.5819;
990.0000;0.6422;0.5844;
990.3000;0.6422;0.5819;
990.6000;0.6357;0.5718;
990.9000;0.6398;0.5894;
991.2000;0.6422;0.5794;
991.5000;0.6471;0.5869;
991.8000;0.6422;0.5769;
992.1000;0.6422;0.5693;
992.4000;0.6439;0.5743;
992.7000;0.6422;0.5769;
993.0000;0.6431;0.5819;
993.3000;0.6422;0.5794;
993.6000;0.6398;0.5718;
993.9000;0.6447;0.5794;
994.2000;0.6422;0.5693;
994.5000;0.6406;0.5693;
994.8000;0.6398;0.5617;
995.1000;0.6422;0.5718;
995.4000;0.6439;0.5819;
995.7000;0.6414;0.5794;
996.0000;0.6406;0.5844;
996.3000;0.6414;0.5794;
996.6000;0.6447;0.5869;
996.9000;0.6414;0.5794;
997.2000;0.6439;0.5743;
997.5000;0.6439;0.5769;
997.8000;0.6479;0.5869;
998.1000;0.6439;0.5794;
998.4000;0.6455;0.5945;
998.7000;0.6382;0.5718;
999.0000;0.6439;0.5794;
999.3000;0.6422;0.5668;
999.6000;0.6431;0.5643;
999.9000;0.6422;0.5617;
1000.2000;0.6431;0.5617;
1000.5000;0.6422;0.5517;
1000.8000;0.6398;0.5441;
1001.1000;0.6414;0.5517;
1001.4000;0.6406;0.5517;
1001.7000;0.6439;0.5592;
1002.0000;0.6398;0.5592;
1002.3000;0.6414;0.5567;
1002.6000;0.6406;0.5592;
1002.9000;0.6447;0.5668;
1003.2000;0.6414;0.5567;
1003.5000;0.6398;0.5617;
1003.8000;0.6422;0.5743;
1004.1000;0.6431;0.5693;
1004.4000;0.6414;0.5668;
1004.7000;0.6414;0.5643;
1005.0000;0.6382;0.5517;
1005.3000;0.6414;0.5517;
1005.6000;0.6398;0.5441;
1005.9000;0.6398;0.5491;
1006.2000;0.6447;0.5491;
1006.5000;0.6398;0.5365;
1006.8000;0.6406;0.5441;
1007.1000;0.6398;0.5466;
1007.4000;0.6422;0.5592;
1007.7000;0.6406;0.5542;
1008.0000;0.6479;0.5718;
1008.3000;0.6414;0.5542;
1008.6000;0.6422;0.5517;
1008.9000;0.6406;0.5542;
1009.2000;0.6349;0.5441;
1009.5000;0.6414;0.5617;
1009.8000;0.6406;0.5718;
1010.1000;0.6406;0.5769;
1010.4000;0.6374;0.5693;
1010.7000;0.6398;0.5718;
1011.0000;0.6398;0.5668;
1011.3000;0.6422;0.5769;
1011.6000;0.6439;0.5668;
1011.9000;0.6496;0.5844;
1012.2000;0.6406;0.5567;
1012.5000;0.6406;0.5542;
1012.8000;0.6406;0.5542;
1013.1000;0.6431;0.5617;
1013.4000;0.6406;0.5567;
1013.7000;0.6382;0.5567;
1014.0000;0.6414;0.5567;
1014.3000;0.6414;0.5592;
1014.6000;0.6349;0.5441;
1014.9000;0.6414;0.5693;
1015.2000;0.6406;0.5668;
1015.5000;0.6455;0.5794;
1015.8000;0.6398;0.5693;
1016.1000;0.6398;0.5718;
1016.4000;0.6390;0.5718;
1016.7000;0.6414;0.5794;
1017.0000;0.6406;0.5844;
1017.3000;0.6406;0.5819;
1017.6000;0.6431;0.5844;
1017.9000;0.6439;0.5844;
1018.2000;0.6439;0.5794;
1018.5000;0.6447;0.5643;
1018.8000;0.6414;0.5517;
1019.1000;0.6422;0.5517;
1019.4000;0.6398;0.5542;
1019.7000;0.6455;0.5769;
1020.0000;0.6398;0.5592;
1020.3000;0.6406;0.5542;
1020.6000;0.6414;0.5617;
1020.9000;0.6390;0.5592;
1021.2000;0.6390;0.5542;
1021.5000;0.6398;0.5491;
1021.8000;0.6406;0.5391;
1022.1000;0.6422;0.5290;
1022.4000;0.6390;0.5290;
1022.7000;0.6398;0.5290;
1023.0000;0.6406;0.5391;
1023.3000;0.6406;0.5391;
1023.6000;0.6406;0.5466;
1023.9000;0.6406;0.5391;
1024.2000;0.6406;0.5441;
1024.5000;0.6414;0.5441;
1024.8000;0.6406;0.5391;
1025.1000;0.6398;0.5391;
1025.4000;0.6406;0.5365;
1025.7000;0.6398;0.5365;
1026.0000;0.6398;0.5315;
1026.3000;0.6406;0.5315;
1026.6000;0.6406;0.5391;
1026.9000;0.6422;0.5441;
1027.2000;0.6431;0.5491;
1027.5000;0.6406;0.5416;
1027.8000;0.6390;0.5315;
1028.1000;0.6422;0.5416;
1028.4000;0.6414;0.5416;
1028.7000;0.6414;0.5517;
1029.0000;0.6374;0.5391;
1029.3000;0.6406;0.5365;
1029.6000;0.6398;0.5391;
1029.9000;0.6439;0.5517;
1030.2000;0.6406;0.5441;
1030.5000;0.6398;0.5391;
1030.8000;0.6414;0.5441;
1031.1000;0.6382;0.5365;
1031.4000;0.6398;0.5416;
1031.7000;0.6398;0.5416;
1032.0000;0.6431;0.5466;
1032.3000;0.6398;0.5441;
1032.6000;0.6374;0.5391;
1032.9000;0.6422;0.5542;
1033.2000;0.6406;0.5517;
1033.5000;0.6390;0.5491;
1033.8000;0.6398;0.5416;
1034.1000;0.6390;0.5391;
1034.4000;0.6406;0.5315;
1034.7000;0.6398;0.5340;
1035.0000;0.6406;0.5416;
1035.3000;0.6390;0.5391;
1035.6000;0.6390;0.5542;
1035.9000;0.6398;0.5542;
1036.2000;0.6406;0.5592;
1036.5000;0.6390;0.5491;
1036.8000;0.6406;0.5466;
1037.1000;0.6406;0.5517;
1037.4000;0.6414;0.5617;
1037.7000;0.6398;0.5491;
1038.0000;0.6374;0.5391;
1038.3000;0.6398;0.5491;
1038.6000;0.6382;0.5391;
1038.9000;0.6406;0.5517;
1039.2000;0.6382;0.5441;
1039.5000;0.6406;0.5491;
1039.8000;0.6414;0.5542;
1040.1000;0.6390;0.5517;
1040.4000;0.6406;0.5567;
1040.7000;0.6398;0.5592;
1041.0000;0.6398;0.5617;
1041.3000;0.6406;0.5592;
1041.6000;0.6390;0.5592;
1041.9000;0.6398;0.5643;
1042.2000;0.6390;0.5643;
1042.5000;0.6365;0.5567;
1042.8000;0.6398;0.5643;
1043.1000;0.6398;0.5693;
1043.4000;0.6406;0.5743;
1043.7000;0.6406;0.5693;
1044.0000;0.6398;0.5643;
1044.3000;0.6406;0.5668;
1044.6000;0.6398;0.5617;
1044.9000;0.6398;0.5643;
1045.2000;0.6414;0.5693;
1045.5000;0.6398;0.5718;
1045.8000;0.6390;0.5643;
1046.1000;0.6406;0.5693;
1046.4000;0.6390;0.5743;
1046.7000;0.6390;0.5668;
1047.0000;0.6390;0.5643;
1047.3000;0.6390;0.5718;
1047.6000;0.6382;0.5718;
1047.9000;0.6390;0.5718;
1048.2000;0.6382;0.5617;
1048.5000;0.6398;0.5617;
1048.8000;0.6398;0.5542;
1049.1000;0.6406;0.5617;
1049.4000;0.6398;0.5567;
1049.7000;0.6341;0.5441;
1050.0000;0.6406;0.5517;
1050.3000;0.6398;0.5517;
1050.6000;0.6390;0.5466;
1050.9000;0.6382;0.5391;
1051.2000;0.6390;0.5391;
1051.5000;0.6390;0.5466;
1051.8000;0.6439;0.5466;
1052.1000;0.6382;0.5416;
1052.4000;0.6382;0.5416;
1052.7000;0.6398;0.5416;
1053.0000;0.6414;0.5441;
1053.3000;0.6390;0.5315;
1053.6000;0.6390;0.5265;
1053.9000;0.6398;0.5290;
1054.2000;0.6398;0.5290;
1054.5000;0.6390;0.5290;
1054.8000;0.6406;0.5315;
1055.1000;0.6398;0.5340;
1055.4000;0.6414;0.5416;
1055.7000;0.6398;0.5416;
1056.0000;0.6390;0.5365;
1056.3000;0.6431;0.5441;
1056.6000;0.6398;0.5441;
1056.9000;0.6382;0.5391;
1057.2000;0.6390;0.5517;
1057.5000;0.6390;0.5542;
1057.8000;0.6398;0.5517;
1058.1000;0.6374;0.5441;
1058.4000;0.6398;0.5542;
1058.7000;0.6398;0.5567;
1059.0000;0.6406;0.5693;
1059.3000;0.6382;0.5567;
1059.6000;0.6406;0.5668;
1059.9000;0.6406;0.5718;
1060.2000;0.6406;0.5693;
1060.5000;0.6398;0.5718;
1060.8000;0.6406;0.5718;
1061.1000;0.6374;0.5592;
1061.4000;0.6431;0.5718;
1061.7000;0.6349;0.5567;
1062.0000;0.6398;0.5592;
1062.3000;0.6382;0.5567;
1062.6000;0.6390;0.5542;
1062.9000;0.6398;0.5517;
1063.2000;0.6390;0.5517;
1063.5000;0.6390;0.5491;
1063.8000;0.6390;0.5491;
1064.1000;0.6398;0.5491;
1064.4000;0.6365;0.5441;
1064.7000;0.6390;0.5491;
1065.0000;0.6398;0.5466;
1065.3000;0.6406;0.5567;
1065.6000;0.6414;0.5567;
1065.9000;0.6422;0.5592;
1066.2000;0.6439;0.5718;
1066.5000;0.6398;0.5617;
1066.8000;0.6382;0.5592;
1067.1000;0.6382;0.5542;
1067.4000;0.6390;0.5592;
1067.7000;0.6357;0.5391;
1068.0000;0.6414;0.5391;
1068.3000;0.6422;0.5441;
1068.6000;0.6390;0.5441;
1068.9000;0.6439;0.5693;
1069.2000;0.6398;0.5643;
1069.5000;0.6398;0.5542;
1069.8000;0.6374;0.5517;
1070.1000;0.6398;0.5567;
1070.4000;0.6398;0.5617;
1070.7000;0.6390;0.5416;
1071.0000;0.6374;0.5340;
1071.3000;0.6382;0.5416;
1071.6000;0.6325;0.5240;
1071.9000;0.6382;0.5391;
1072.2000;0.6455;0.5542;
1072.5000;0.6382;0.5416;
1072.8000;0.6374;0.5416;
1073.1000;0.6390;0.5391;
1073.4000;0.6398;0.5416;
1073.7000;0.6390;0.5365;
1074.0000;0.6382;0.5416;
1074.3000;0.6406;0.5466;
1074.6000;0.6398;0.5517;
1074.9000;0.6374;0.5391;
1075.2000;0.6390;0.5290;
1075.5000;0.6398;0.5214;
1075.8000;0.6398;0.5214;
1076.1000;0.6382;0.5139;
1076.4000;0.6374;0.5139;
1076.7000;0.6398;0.5290;
1077.0000;0.6374;0.5315;
1077.3000;0.6382;0.5365;
1077.6000;0.6390;0.5441;
1077.9000;0.6390;0.5441;
1078.2000;0.6398;0.5441;
1078.5000;0.6382;0.5441;
1078.8000;0.6374;0.5491;
1079.1000;0.6390;0.5567;
1079.4000;0.6382;0.5693;
1079.7000;0.6398;0.5718;
1080.0000;0.6398;0.5743;
1080.3000;0.6382;0.5718;
1080.6000;0.6398;0.5668;
1080.9000;0.6382;0.5517;
1081.2000;0.6431;0.5617;
1081.5000;0.6382;0.5517;
1081.8000;0.6374;0.5491;
1082.1000;0.6374;0.5441;
1082.4000;0.6382;0.5391;
1082.7000;0.6365;0.5365;
1083.0000;0.6357;0.5315;
1083.3000;0.6382;0.5340;
1083.6000;0.6374;0.5315;
1083.9000;0.6374;0.5315;
1084.2000;0.6382;0.5214;
1084.5000;0.6390;0.5265;
1084.8000;0.6390;0.5365;
1085.1000;0.6390;0.5340;
1085.4000;0.6382;0.5315;
1085.7000;0.6382;0.5315;
1086.0000;0.6398;0.5416;
1086.3000;0.6390;0.5517;
1086.6000;0.6382;0.5517;
1086.9000;0.6382;0.5391;
1087.2000;0.6390;0.5340;
1087.5000;0.6374;0.5466;
1087.8000;0.6374;0.5517;
1088.1000;0.6390;0.5668;
1088.4000;0.6390;0.5668;
1088.7000;0.6382;0.5567;
1089.0000;0.6390;0.5517;
1089.3000;0.6390;0.5542;
1089.6000;0.6374;0.5517;
1089.9000;0.6398;0.5592;
1090.2000;0.6390;0.5567;
1090.5000;0.6374;0.5517;
1090.8000;0.6365;0.5466;
1091.1000;0.6374;0.5567;
1091.4000;0.6365;0.5542;
1091.7000;0.6276;0.5365;
1092.0000;0.6374;0.5542;
1092.3000;0.6398;0.5567;
1092.6000;0.6390;0.5517;
1092.9000;0.6406;0.5643;
1093.2000;0.6374;0.5617;
1093.5000;0.6382;0.5643;
1093.8000;0.6365;0.5542;
1094.1000;0.6365;0.5567;
1094.4000;0.6390;0.5592;
1094.7000;0.6398;0.5592;
1095.0000;0.6382;0.5567;
1095.3000;0.6374;0.5668;
1095.6000;0.6390;0.5693;
1095.9000;0.6406;0.5743;
1096.2000;0.6390;0.5769;
1096.5000;0.6390;0.5769;
1096.8000;0.6382;0.5869;
1097.1000;0.6374;0.5844;
1097.4000;0.6357;0.5769;
1097.7000;0.6374;0.5819;
1098.0000;0.6414;0.5894;
1098.3000;0.6382;0.5769;
1098.6000;0.6374;0.5743;
1098.9000;0.6374;0.5718;
1099.2000;0.6398;0.5743;
1099.5000;0.6382;0.5567;
1099.8000;0.6374;0.5643;
1100.1000;0.6406;0.5718;
1100.4000;0.6374;0.5693;
1100.7000;0.6398;0.5794;
1101.0000;0.6398;0.5819;
1101.3000;0.6414;0.5844;
1101.6000;0.6374;0.5819;
1101.9000;0.6357;0.5743;
1102.2000;0.6300;0.5517;
1102.5000;0.6382;0.5743;
1102.8000;0.6374;0.5718;
1103.1000;0.6349;0.5617;
1103.4000;0.6365;0.5693;
1103.7000;0.6463;0.5970;
1104.0000;0.6382;0.5718;
1104.3000;0.6365;0.5643;
1104.6000;0.6382;0.5693;
1104.9000;0.6382;0.5718;
1105.2000;0.6365;0.5592;
1105.5000;0.6390;0.5643;
1105.8000;0.6390;0.5592;
1106.1000;0.6406;0.5617;
1106.4000;0.6390;0.5617;
1106.7000;0.6406;0.5693;
1107.0000;0.6390;0.5643;
1107.3000;0.6382;0.5668;
1107.6000;0.6341;0.5542;
1107.9000;0.6390;0.5718;
1108.2000;0.6357;0.5668;
1108.5000;0.6382;0.5693;
1108.8000;0.6382;0.5693;
1109.1000;0.6365;0.5668;
1109.4000;0.6382;0.5643;
1109.7000;0.6374;0.5643;
1110.0000;0.6382;0.5617;
1110.3000;0.6374;0.5617;
1110.6000;0.6374;0.5668;
1110.9000;0.6390;0.5617;
1111.2000;0.6398;0.5567;
1111.5000;0.6398;0.5643;
1111.8000;0.6349;0.5592;
1112.1000;0.6365;0.5617;
1112.4000;0.6382;0.5643;
1112.7000;0.6357;0.5643;
1113.0000;0.6382;0.5718;
1113.3000;0.6398;0.5794;
1113.6000;0.6341;0.5617;
1113.9000;0.6374;0.5718;
1114.2000;0.6341;0.5643;
1114.5000;0.6357;0.5668;
1114.8000;0.6374;0.5668;
1115.1000;0.6365;0.5643;
1115.4000;0.6406;0.5920;
1115.7000;0.6390;0.5894;
1116.0000;0.6365;0.5894;
1116.3000;0.6406;0.5945;
1116.6000;0.6365;0.5794;
1116.9000;0.6374;0.5718;
1117.2000;0.6333;0.5517;
1117.5000;0.6374;0.5643;
1117.8000;0.6374;0.5693;
1118.1000;0.6390;0.5743;
1118.4000;0.6374;0.5718;
1118.7000;0.6357;0.5617;
1119.0000;0.6382;0.5693;
1119.3000;0.6374;0.5693;
1119.6000;0.6382;0.5693;
1119.9000;0.6382;0.5643;
1120.2000;0.6374;0.5643;
1120.5000;0.6390;0.5718;
1120.8000;0.6374;0.5542;
1121.1000;0.6398;0.5491;
1121.4000;0.6382;0.5517;
1121.7000;0.6374;0.5542;
1122.0000;0.6357;0.5466;
1122.3000;0.6374;0.5567;
1122.6000;0.6365;0.5592;
1122.9000;0.6365;0.5567;
1123.2000;0.6357;0.5592;
1123.5000;0.6349;0.5592;
1123.8000;0.6357;0.5643;
1124.1000;0.6357;0.5592;
1124.4000;0.6374;0.5643;
1124.7000;0.6300;0.5441;
1125.0000;0.6357;0.5517;
1125.3000;0.6374;0.5643;
1125.6000;0.6374;0.5567;
1125.9000;0.6382;0.5592;
1126.2000;0.6374;0.5491;
1126.5000;0.6390;0.5491;
1126.8000;0.6374;0.5567;
1127.1000;0.6414;0.5693;
1127.4000;0.6365;0.5693;
1127.7000;0.6365;0.5693;
1128.0000;0.6357;0.5668;
1128.3000;0.6365;0.5743;
1128.6000;0.6357;0.5617;
1128.9000;0.6325;0.5466;
1129.2000;0.6365;0.5643;
1129.5000;0.6349;0.5542;
1129.8000;0.6357;0.5592;
1130.1000;0.6374;0.5668;
1130.4000;0.6390;0.5668;
1130.7000;0.6390;0.5769;
1131.0000;0.6365;0.5668;
1131.3000;0.6382;0.5643;
1131.6000;0.6349;0.5567;
1131.9000;0.6374;0.5643;
1132.2000;0.6357;0.5592;
1132.5000;0.6365;0.5592;
1132.8000;0.6374;0.5517;
1133.1000;0.6365;0.5567;
1133.4000;0.6365;0.5542;
1133.7000;0.6341;0.5441;
1134.0000;0.6357;0.5517;
1134.3000;0.6374;0.5466;
1134.6000;0.6382;0.5365;
1134.9000;0.6365;0.5416;
1135.2000;0.6365;0.5416;
1135.5000;0.6374;0.5441;
1135.8000;0.6382;0.5491;
1136.1000;0.6365;0.5491;
1136.4000;0.6357;0.5491;
1136.7000;0.6382;0.5542;
1137.0000;0.6382;0.5517;
1137.3000;0.6431;0.5643;
1137.6000;0.6365;0.5517;
1137.9000;0.6365;0.5517;
1138.2000;0.6325;0.5365;
1138.5000;0.6390;0.5592;
1138.8000;0.6309;0.5441;
1139.1000;0.6357;0.5542;
1139.4000;0.6325;0.5365;
1139.7000;0.6325;0.5416;
1140.0000;0.6365;0.5466;
1140.3000;0.6365;0.5592;
1140.6000;0.6365;0.5668;
1140.9000;0.6325;0.5491;
1141.2000;0.6357;0.5517;
1141.5000;0.6349;0.5567;
1141.8000;0.6349;0.5567;
1142.1000;0.6374;0.5491;
1142.4000;0.6374;0.5517;
1142.7000;0.6349;0.5466;
1143.0000;0.6357;0.5491;
1143.3000;0.6317;0.5290;
1143.6000;0.6357;0.5391;
1143.9000;0.6317;0.5340;
1144.2000;0.6357;0.5466;
1144.5000;0.6374;0.5466;
1144.8000;0.6357;0.5491;
1145.1000;0.6365;0.5517;
1145.4000;0.6357;0.5466;
1145.7000;0.6357;0.5517;
1146.0000;0.6349;0.5466;
1146.3000;0.6349;0.5542;
1146.6000;0.6390;0.5617;
1146.9000;0.6382;0.5668;
1147.2000;0.6374;0.5617;
1147.5000;0.6349;0.5517;
1147.8000;0.6349;0.5517;
1148.1000;0.6374;0.5466;
1148.4000;0.6398;0.5517;
1148.7000;0.6365;0.5441;
1149.0000;0.6374;0.5466;
1149.3000;0.6365;0.5491;
1149.6000;0.6382;0.5567;
1149.9000;0.6349;0.5416;
1150.2000;0.6357;0.5391;
1150.5000;0.6357;0.5441;
1150.8000;0.6357;0.5340;
1151.1000;0.6341;0.5290;
1151.4000;0.6374;0.5542;
1151.7000;0.6365;0.5542;
1152.0000;0.6357;0.5567;
1152.3000;0.6365;0.5592;
1152.6000;0.6422;0.5794;
1152.9000;0.6414;0.5769;
1153.2000;0.6374;0.5668;
1153.5000;0.6357;0.5567;
1153.8000;0.6341;0.5567;
1154.1000;0.6276;0.5416;
1154.4000;0.6300;0.5466;
1154.7000;0.6374;0.5592;
1155.0000;0.6349;0.5466;
1155.3000;0.6357;0.5441;
1155.6000;0.6365;0.5517;
1155.9000;0.6398;0.5592;
1156.2000;0.6357;0.5416;
1156.5000;0.6341;0.5340;
1156.8000;0.6365;0.5466;
1157.1000;0.6357;0.5466;
1157.4000;0.6292;0.5315;
1157.7000;0.6365;0.5466;
1158.0000;0.6357;0.5466;
1158.3000;0.6349;0.5441;
1158.6000;0.6357;0.5466;
1158.9000;0.6349;0.5466;
1159.2000;0.6300;0.5466;
1159.5000;0.6365;0.5668;
1159.8000;0.6365;0.5592;
1160.1000;0.6357;0.5567;
1160.4000;0.6341;0.5592;
1160.7000;0.6357;0.5517;
1161.0000;0.6325;0.5517;
1161.3000;0.6349;0.5517;
1161.6000;0.6349;0.5542;
1161.9000;0.6357;0.5567;
1162.2000;0.6374;0.5617;
1162.5000;0.6374;0.5668;
1162.8000;0.6349;0.5693;
1163.1000;0.6365;0.5743;
1163.4000;0.6365;0.5693;
1163.7000;0.6365;0.5668;
1164.0000;0.6349;0.5617;
1164.3000;0.6357;0.5592;
1164.6000;0.6414;0.5592;
1164.9000;0.6292;0.5290;
1165.2000;0.6357;0.5466;
1165.5000;0.6357;0.5466;
1165.8000;0.6365;0.5491;
1166.1000;0.6365;0.5567;
1166.4000;0.6374;0.5542;
1166.7000;0.6357;0.5542;
1167.0000;0.6390;0.5693;
1167.3000;0.6365;0.5668;
1167.6000;0.6365;0.5668;
1167.9000;0.6349;0.5668;
1168.2000;0.6357;0.5693;
1168.5000;0.6365;0.5718;
1168.8000;0.6349;0.5769;
1169.1000;0.6341;0.5693;
1169.4000;0.6333;0.5643;
1169.7000;0.6365;0.5617;
1170.0000;0.6374;0.5567;
1170.3000;0.6374;0.5542;
1170.6000;0.6357;0.5517;
1170.9000;0.6374;0.5617;
1171.2000;0.6365;0.5718;
1171.5000;0.6374;0.5693;
1171.8000;0.6341;0.5592;
1172.1000;0.6365;0.5718;
1172.4000;0.6365;0.5668;
1172.7000;0.6365;0.5643;
1173.0000;0.6357;0.5592;
1173.3000;0.6365;0.5517;
1173.6000;0.6357;0.5517;
1173.9000;0.6333;0.5466;
1174.2000;0.6357;0.5441;
1174.5000;0.6341;0.5416;
1174.8000;0.6357;0.5416;
1175.1000;0.6349;0.5441;
1175.4000;0.6341;0.5416;
1175.7000;0.6349;0.5491;
1176.0000;0.6349;0.5542;
1176.3000;0.6357;0.5542;
1176.6000;0.6357;0.5517;
1176.9000;0.6341;0.5517;
1177.2000;0.6357;0.5567;
1177.5000;0.6341;0.5567;
1177.8000;0.6357;0.5592;
1178.1000;0.6341;0.5517;
1178.4000;0.6341;0.5542;
1178.7000;0.6333;0.5617;
1179.0000;0.6349;0.5542;
1179.3000;0.6349;0.5441;
1179.6000;0.6341;0.5441;
1179.9000;0.6341;0.5441;
1180.2000;0.6349;0.5466;
1180.5000;0.6349;0.5491;
1180.8000;0.6349;0.5391;
1181.1000;0.6365;0.5466;
1181.4000;0.6349;0.5517;
1181.7000;0.6365;0.5567;
1182.0000;0.6357;0.5441;
1182.3000;0.6357;0.5517;
1182.6000;0.6365;0.5542;
1182.9000;0.6349;0.5542;
1183.2000;0.6333;0.5517;
1183.5000;0.6365;0.5643;
1183.8000;0.6349;0.5617;
1184.1000;0.6333;0.5643;
1184.4000;0.6382;0.5718;
1184.7000;0.6341;0.5643;
1185.0000;0.6349;0.5643;
1185.3000;0.6365;0.5718;
1185.6000;0.6333;0.5693;
1185.9000;0.6317;0.5617;
1186.2000;0.6365;0.5668;
1186.5000;0.6365;0.5718;
1186.8000;0.6341;0.5819;
1187.1000;0.6341;0.5844;
1187.4000;0.6341;0.5819;
1187.7000;0.6333;0.5769;
1188.0000;0.6365;0.5794;
1188.3000;0.6349;0.5693;
1188.6000;0.6333;0.5668;
1188.9000;0.6349;0.5769;
1189.2000;0.6349;0.5794;
1189.5000;0.6333;0.5769;
1189.8000;0.6317;0.5743;
1190.1000;0.6357;0.5743;
1190.4000;0.6357;0.5668;
1190.7000;0.6341;0.5693;
1191.0000;0.6349;0.5743;
1191.3000;0.6349;0.5693;
1191.6000;0.6357;0.5693;
1191.9000;0.6365;0.5794;
1192.2000;0.6357;0.5668;
1192.5000;0.6365;0.5693;
1192.8000;0.6349;0.5794;
1193.1000;0.6341;0.5819;
1193.4000;0.6357;0.5894;
1193.7000;0.6349;0.5844;
1194.0000;0.6341;0.5819;
1194.3000;0.6349;0.5794;
1194.6000;0.6349;0.5794;
1194.9000;0.6374;0.5794;
1195.2000;0.6341;0.5718;
1195.5000;0.6349;0.5743;
1195.8000;0.6341;0.5769;
1196.1000;0.6349;0.5743;
1196.4000;0.6349;0.5794;
1196.7000;0.6349;0.5819;
1197.0000;0.6333;0.5769;
1197.3000;0.6357;0.5743;
1197.6000;0.6349;0.5592;
1197.9000;0.6341;0.5592;
1198.2000;0.6349;0.5592;
1198.5000;0.6349;0.5592;
1198.8000;0.6357;0.5668;
1199.1000;0.6357;0.5643;
1199.4000;0.6357;0.5769;
1199.7000;0.6341;0.5617;
1200.0000;0.6325;0.5466;
1200.3000;0.6349;0.5567;
1200.6000;0.6349;0.5643;
1200.9000;0.6341;0.5693;
1201.2000;0.6333;0.5643;
1201.5000;0.6341;0.5693;
1201.8000;0.6357;0.5718;
1202.1000;0.6349;0.5693;
1202.4000;0.6349;0.5743;
1202.7000;0.6333;0.5794;
1203.0000;0.6341;0.5769;
1203.3000;0.6357;0.5769;
1203.6000;0.6349;0.5668;
1203.9000;0.6349;0.5668;
1204.2000;0.6341;0.5718;
1204.5000;0.6341;0.5643;
1204.8000;0.6341;0.5693;
1205.1000;0.6333;0.5668;
1205.4000;0.6333;0.5769;
1205.7000;0.6349;0.5819;
1206.0000;0.6374;0.5869;
1206.3000;0.6325;0.5743;
1206.6000;0.6349;0.5743;
1206.9000;0.6357;0.5794;
1207.2000;0.6349;0.5693;
1207.5000;0.6317;0.5668;
1207.8000;0.6365;0.5844;
1208.1000;0.6349;0.5794;
1208.4000;0.6406;0.5894;
1208.7000;0.6325;0.5643;
1209.0000;0.6341;0.5693;
1209.3000;0.6341;0.5643;
1209.6000;0.6341;0.5542;
1209.9000;0.6333;0.5517;
1210.2000;0.6341;0.5466;
1210.5000;0.6284;0.5365;
1210.8000;0.6357;0.5592;
1211.1000;0.6357;0.5718;
1211.4000;0.6341;0.5693;
1211.7000;0.6349;0.5743;
1212.0000;0.6349;0.5743;
1212.3000;0.6341;0.5769;
1212.6000;0.6341;0.5869;
1212.9000;0.6349;0.5819;
1213.2000;0.6349;0.5794;
1213.5000;0.6341;0.5769;
1213.8000;0.6349;0.5794;
1214.1000;0.6284;0.5643;
1214.4000;0.6325;0.5794;
1214.7000;0.6341;0.5819;
1215.0000;0.6292;0.5769;
1215.3000;0.6349;0.5894;
1215.6000;0.6382;0.6020;
1215.9000;0.6317;0.5894;
1216.2000;0.6341;0.5844;
1216.5000;0.6341;0.5920;
1216.8000;0.6341;0.5945;
1217.1000;0.6349;0.5894;
1217.4000;0.6341;0.5894;
1217.7000;0.6357;0.5894;
1218.0000;0.6390;0.6020;
1218.3000;0.6357;0.5894;
1218.6000;0.6341;0.5819;
1218.9000;0.6341;0.5794;
1219.2000;0.6341;0.5869;
1219.5000;0.6349;0.5945;
1219.8000;0.6317;0.5794;
1220.1000;0.6349;0.5743;
1220.4000;0.6325;0.5794;
1220.7000;0.6333;0.5894;
1221.0000;0.6365;0.5995;
1221.3000;0.6341;0.5945;
1221.6000;0.6357;0.5894;
1221.9000;0.6349;0.5869;
1222.2000;0.6349;0.5819;
1222.5000;0.6349;0.5819;
1222.8000;0.6341;0.5819;
1223.1000;0.6349;0.5869;
1223.4000;0.6333;0.5869;
1223.7000;0.6349;0.5819;
1224.0000;0.6333;0.5769;
1224.3000;0.6333;0.5718;
1224.6000;0.6365;0.5844;
1224.9000;0.6357;0.5844;
1225.2000;0.6317;0.5794;
1225.5000;0.6341;0.5869;
1225.8000;0.6325;0.5894;
1226.1000;0.6341;0.5819;
1226.4000;0.6349;0.5844;
1226.7000;0.6341;0.5894;
1227.0000;0.6341;0.5894;
1227.3000;0.6357;0.5894;
1227.6000;0.6365;0.5970;
1227.9000;0.6349;0.5995;
1228.2000;0.6333;0.5920;
1228.5000;0.6365;0.5945;
1228.8000;0.6357;0.5869;
1229.1000;0.6349;0.5894;
1229.4000;0.6341;0.5894;
1229.7000;0.6333;0.5894;
1230.0000;0.6333;0.5869;
1230.3000;0.6317;0.5844;
1230.6000;0.6349;0.5894;
1230.9000;0.6300;0.5844;
1231.2000;0.6341;0.5844;
1231.5000;0.6341;0.5769;
1231.8000;0.6398;0.5945;
1232.1000;0.6333;0.5794;
1232.4000;0.6398;0.5920;
1232.7000;0.6365;0.5894;
1233.0000;0.6341;0.5819;
1233.3000;0.6341;0.5844;
1233.6000;0.6349;0.5920;
1233.9000;0.6341;0.5970;
1234.2000;0.6349;0.5970;
1234.5000;0.6349;0.5920;
1234.8000;0.6325;0.5920;
1235.1000;0.6349;0.5945;
1235.4000;0.6365;0.5995;
1235.7000;0.6333;0.5894;
1236.0000;0.6349;0.5920;
1236.3000;0.6349;0.5920;
1236.6000;0.6349;0.5894;
1236.9000;0.6341;0.5844;
1237.2000;0.6349;0.5769;
1237.5000;0.6341;0.5844;
1237.8000;0.6349;0.5869;
1238.1000;0.6341;0.5769;
1238.4000;0.6333;0.5743;
1238.7000;0.6349;0.5718;
1239.0000;0.6357;0.5769;
1239.3000;0.6349;0.5693;
1239.6000;0.6349;0.5769;
1239.9000;0.6349;0.5819;
1240.2000;0.6349;0.5794;
1240.5000;0.6341;0.5769;
1240.8000;0.6333;0.5743;
1241.1000;0.6341;0.5794;
1241.4000;0.6349;0.5794;
1241.7000;0.6317;0.5668;
1242.0000;0.6325;0.5718;
1242.3000;0.6341;0.5769;
1242.6000;0.6341;0.5819;
1242.9000;0.6341;0.5844;
1243.2000;0.6341;0.5894;
1243.5000;0.6333;0.5970;
1243.8000;0.6365;0.6020;
1244.1000;0.6349;0.5970;
1244.4000;0.6341;0.6046;
1244.7000;0.6333;0.5995;
1245.0000;0.6309;0.5920;
1245.3000;0.6325;0.5970;
1245.6000;0.6333;0.6020;
1245.9000;0.6333;0.5920;
1246.2000;0.6341;0.5920;
1246.5000;0.6349;0.5894;
1246.8000;0.6349;0.5869;
1247.1000;0.6284;0.5743;
1247.4000;0.6349;0.5920;
1247.7000;0.6365;0.5995;
1248.0000;0.6365;0.6046;
1248.3000;0.6349;0.6046;
1248.6000;0.6333;0.6046;
1248.9000;0.6357;0.6020;
1249.2000;0.6349;0.6046;
1249.5000;0.6341;0.5920;
1249.8000;0.6341;0.5945;
1250.1000;0.6349;0.5920;
1250.4000;0.6341;0.5920;
1250.7000;0.6341;0.5945;
1251.0000;0.6341;0.5920;
1251.3000;0.6398;0.6046;
1251.6000;0.6357;0.5844;
1251.9000;0.6341;0.5819;
1252.2000;0.6341;0.5945;
1252.5000;0.6349;0.5970;
1252.8000;0.6365;0.6020;
1253.1000;0.6341;0.5995;
1253.4000;0.6333;0.5995;
1253.7000;0.6406;0.6071;
1254.0000;0.6341;0.5894;
1254.3000;0.6349;0.5869;
1254.6000;0.6349;0.5869;
1254.9000;0.6333;0.5819;
1255.2000;0.6300;0.5794;
1255.5000;0.6325;0.5894;
1255.8000;0.6382;0.6046;
1256.1000;0.6325;0.5844;
1256.4000;0.6422;0.6071;
1256.7000;0.6300;0.5769;
1257.0000;0.6349;0.5970;
1257.3000;0.6268;0.5794;
1257.6000;0.6341;0.6046;
1257.9000;0.6349;0.6020;
1258.2000;0.6349;0.6071;
1258.5000;0.6333;0.6020;
1258.8000;0.6333;0.6020;
1259.1000;0.6349;0.6046;
1259.4000;0.6365;0.5945;
1259.7000;0.6317;0.5869;
1260.0000;0.6317;0.5844;
1260.3000;0.6317;0.5869;
1260.6000;0.6341;0.5945;
1260.9000;0.6317;0.5920;
1261.2000;0.6325;0.5920;
1261.5000;0.6325;0.5920;
1261.8000;0.6317;0.5894;
1262.1000;0.6341;0.5869;
1262.4000;0.6341;0.5894;
1262.7000;0.6349;0.5970;
1263.0000;0.6349;0.5995;
1263.3000;0.6341;0.5970;
1263.6000;0.6341;0.6020;
1263.9000;0.6341;0.6071;
1264.2000;0.6333;0.6020;
1264.5000;0.6365;0.6121;
1264.8000;0.6333;0.5894;
1265.1000;0.6333;0.5894;
1265.4000;0.6349;0.5945;
1265.7000;0.6349;0.5945;
1266.0000;0.6325;0.5819;
1266.3000;0.6325;0.5869;
1266.6000;0.6349;0.5894;
1266.9000;0.6325;0.5920;
1267.2000;0.6341;0.6046;
1267.5000;0.6349;0.6096;
1267.8000;0.6341;0.6096;
1268.1000;0.6341;0.6071;
1268.4000;0.6382;0.6146;
1268.7000;0.6349;0.6046;
1269.0000;0.6325;0.6096;
1269.3000;0.6341;0.6096;
1269.6000;0.6349;0.6046;
1269.9000;0.6309;0.5920;
1270.2000;0.6333;0.6020;
1270.5000;0.6333;0.5995;
1270.8000;0.6349;0.6197;
1271.1000;0.6325;0.6247;
1271.4000;0.6325;0.6172;
1271.7000;0.6317;0.6096;
1272.0000;0.6341;0.5970;
1272.3000;0.6325;0.5945;
1272.6000;0.6333;0.5995;
1272.9000;0.6341;0.6020;
1273.2000;0.6341;0.6020;
1273.5000;0.6357;0.5995;
1273.8000;0.6349;0.5995;
1274.1000;0.6341;0.5920;
1274.4000;0.6341;0.5995;
1274.7000;0.6300;0.5844;
1275.0000;0.6341;0.5894;
1275.3000;0.6333;0.5920;
1275.6000;0.6349;0.5995;
1275.9000;0.6357;0.5920;
1276.2000;0.6325;0.5794;
1276.5000;0.6341;0.5743;
1276.8000;0.6325;0.5819;
1277.1000;0.6333;0.5920;
1277.4000;0.6317;0.5869;
1277.7000;0.6300;0.5920;
1278.0000;0.6349;0.5894;
1278.3000;0.6341;0.5869;
1278.6000;0.6325;0.5844;
1278.9000;0.6325;0.5869;
1279.2000;0.6341;0.5894;
1279.5000;0.6325;0.5869;
1279.8000;0.6333;0.5920;
1280.1000;0.6325;0.5894;
1280.4000;0.6325;0.5920;
1280.7000;0.6333;0.5920;
1281.0000;0.6349;0.6020;
1281.3000;0.6349;0.6020;
1281.6000;0.6365;0.6096;
1281.9000;0.6349;0.6096;
1282.2000;0.6349;0.6020;
1282.5000;0.6349;0.6046;
1282.8000;0.6349;0.5945;
1283.1000;0.6341;0.5869;
1283.4000;0.6341;0.5894;
1283.7000;0.6341;0.5844;
1284.0000;0.6374;0.5995;
1284.3000;0.6333;0.5869;
1284.6000;0.6349;0.5894;
1284.9000;0.6357;0.5945;
1285.2000;0.6325;0.5869;
1285.5000;0.6325;0.5819;
1285.8000;0.6349;0.5920;
1286.1000;0.6300;0.5844;
1286.4000;0.6300;0.5819;
1286.7000;0.6317;0.5869;
1287.0000;0.6325;0.5894;
1287.3000;0.6333;0.5844;
1287.6000;0.6349;0.5869;
1287.9000;0.6325;0.5894;
1288.2000;0.6341;0.5894;
1288.5000;0.6349;0.5844;
1288.8000;0.6325;0.5769;
1289.1000;0.6349;0.5743;
1289.4000;0.6341;0.5718;
1289.7000;0.6357;0.5819;
1290.0000;0.6357;0.5819;
1290.3000;0.6333;0.5819;
1290.6000;0.6317;0.5819;
1290.9000;0.6325;0.5869;
1291.2000;0.6341;0.5920;
1291.5000;0.6333;0.5869;
1291.8000;0.6333;0.5920;
1292.1000;0.6333;0.5945;
1292.4000;0.6333;0.5945;
1292.7000;0.6317;0.5945;
1293.0000;0.6341;0.5894;
1293.3000;0.6349;0.5844;
1293.6000;0.6365;0.5743;
1293.9000;0.6341;0.5718;
1294.2000;0.6325;0.5617;
1294.5000;0.6333;0.5668;
1294.8000;0.6390;0.5819;
1295.1000;0.6341;0.5718;
1295.4000;0.6252;0.5491;
1295.7000;0.6325;0.5743;
1296.0000;0.6325;0.5693;
1296.3000;0.6325;0.5819;
1296.6000;0.6333;0.5819;
1296.9000;0.6325;0.5794;
1297.2000;0.6341;0.5743;
1297.5000;0.6382;0.5844;
1297.8000;0.6333;0.5592;
1298.1000;0.6309;0.5567;
1298.4000;0.6325;0.5643;
1298.7000;0.6333;0.5643;
1299.0000;0.6341;0.5693;
1299.3000;0.6333;0.5794;
1299.6000;0.6333;0.5869;
1299.9000;0.6349;0.5844;
1300.2000;0.6357;0.5844;
1300.5000;0.6333;0.5794;
1300.8000;0.6333;0.5794;
1301.1000;0.6349;0.5819;
1301.4000;0.6349;0.5819;
1301.7000;0.6333;0.5794;
1302.0000;0.6309;0.5693;
1302.3000;0.6325;0.5718;
1302.6000;0.6333;0.5743;
1302.9000;0.6333;0.5794;
1303.2000;0.6333;0.5945;
1303.5000;0.6317;0.5995;
1303.8000;0.6357;0.6146;
1304.1000;0.6341;0.6096;
1304.4000;0.6341;0.6121;
1304.7000;0.6357;0.6172;
1305.0000;0.6333;0.6096;
1305.3000;0.6341;0.6146;
1305.6000;0.6325;0.6046;
1305.9000;0.6317;0.6020;
1306.2000;0.6333;0.6121;
1306.5000;0.6333;0.6146;
1306.8000;0.6341;0.6121;
1307.1000;0.6333;0.6096;
1307.4000;0.6325;0.6046;
1307.7000;0.6349;0.6096;
1308.0000;0.6349;0.6020;
1308.3000;0.6333;0.5945;
1308.6000;0.6341;0.5920;
1308.9000;0.6333;0.5920;
1309.2000;0.6341;0.5869;
1309.5000;0.6341;0.5844;
1309.8000;0.6349;0.5869;
1310.1000;0.6333;0.5894;
1310.4000;0.6341;0.5869;
1310.7000;0.6325;0.5894;
1311.0000;0.6382;0.5945;
1311.3000;0.6325;0.5769;
1311.6000;0.6317;0.5718;
1311.9000;0.6325;0.5794;
1312.2000;0.6325;0.5819;
1312.5000;0.6349;0.5920;
1312.8000;0.6341;0.6071;
1313.1000;0.6333;0.6046;
1313.4000;0.6325;0.5970;
1313.7000;0.6333;0.5970;
1314.0000;0.6333;0.5894;
1314.3000;0.6333;0.5945;
1314.6000;0.6357;0.6046;
1314.9000;0.6333;0.5970;
1315.2000;0.6341;0.6020;
1315.5000;0.6325;0.6046;
1315.8000;0.6325;0.5995;
1316.1000;0.6325;0.5945;
1316.4000;0.6333;0.5920;
1316.7000;0.6349;0.5920;
1317.0000;0.6325;0.5920;
1317.3000;0.6341;0.5970;
1317.6000;0.6268;0.5769;
1317.9000;0.6341;0.5920;
1318.2000;0.6325;0.5894;
1318.5000;0.6341;0.5920;
1318.8000;0.6341;0.5894;
1319.1000;0.6349;0.5920;
1319.4000;0.6349;0.5894;
1319.7000;0.6341;0.5894;
1320.0000;0.6333;0.5894;
1320.3000;0.6333;0.5920;
1320.6000;0.6325;0.5920;
1320.9000;0.6349;0.5995;
1321.2000;0.6317;0.5869;
1321.5000;0.6309;0.5920;
1321.8000;0.6341;0.5945;
1322.1000;0.6325;0.5970;
1322.4000;0.6317;0.5995;
1322.7000;0.6300;0.5995;
1323.0000;0.6309;0.5945;
1323.3000;0.6325;0.5995;
1323.6000;0.6325;0.5945;
1323.9000;0.6357;0.5995;
1324.2000;0.6333;0.5844;
1324.5000;0.6341;0.5844;
1324.8000;0.6300;0.5743;
1325.1000;0.6309;0.5794;
1325.4000;0.6333;0.5819;
1325.7000;0.6333;0.5894;
1326.0000;0.6325;0.5894;
1326.3000;0.6341;0.6071;
1326.6000;0.6333;0.6096;
1326.9000;0.6325;0.6071;
1327.2000;0.6333;0.6096;
1327.5000;0.6333;0.6071;
1327.8000;0.6317;0.6096;
1328.1000;0.6317;0.6096;
1328.4000;0.6333;0.6146;
1328.7000;0.6292;0.6020;
1329.0000;0.6317;0.6071;
1329.3000;0.6357;0.6146;
1329.6000;0.6317;0.5995;
1329.9000;0.6349;0.6071;
1330.2000;0.6276;0.5869;
1330.5000;0.6374;0.6046;
1330.8000;0.6349;0.6046;
1331.1000;0.6276;0.5794;
1331.4000;0.6317;0.5819;
1331.7000;0.6333;0.5769;
1332.0000;0.6276;0.5668;
1332.3000;0.6325;0.5844;
1332.6000;0.6300;0.5794;
1332.9000;0.6317;0.5844;
1333.2000;0.6365;0.5945;
1333.5000;0.6309;0.5794;
1333.8000;0.6300;0.5844;
1334.1000;0.6325;0.5894;
1334.4000;0.6333;0.5819;
1334.7000;0.6309;0.5794;
1335.0000;0.6325;0.5819;
1335.3000;0.6317;0.5794;
1335.6000;0.6300;0.5844;
1335.9000;0.6317;0.5819;
1336.2000;0.6317;0.5844;
1336.5000;0.6325;0.5920;
1336.8000;0.6325;0.5995;
1337.1000;0.6341;0.6020;
1337.4000;0.6317;0.5920;
1337.7000;0.6300;0.5769;
1338.0000;0.6325;0.5819;
1338.3000;0.6309;0.5769;
1338.6000;0.6349;0.5894;
1338.9000;0.6341;0.5869;
1339.2000;0.6300;0.5769;
1339.5000;0.6333;0.5794;
1339.8000;0.6365;0.5819;
1340.1000;0.6325;0.5617;
1340.4000;0.6349;0.5718;
1340.7000;0.6341;0.5718;
1341.0000;0.6341;0.5794;
1341.3000;0.6309;0.5794;
1341.6000;0.6341;0.5819;
1341.9000;0.6341;0.5844;
1342.2000;0.6325;0.5819;
1342.5000;0.6333;0.5794;
1342.8000;0.6333;0.5743;
1343.1000;0.6325;0.5794;
1343.4000;0.6333;0.5894;
1343.7000;0.6300;0.5819;
1344.0000;0.6333;0.5945;
1344.3000;0.6317;0.5869;
1344.6000;0.6333;0.5869;
1344.9000;0.6333;0.5970;
1345.2000;0.6341;0.5945;
1345.5000;0.6309;0.5920;
1345.8000;0.6317;0.5970;
1346.1000;0.6309;0.5995;
1346.4000;0.6333;0.5970;
1346.7000;0.6317;0.5945;
1347.0000;0.6341;0.5894;
1347.3000;0.6325;0.5819;
1347.6000;0.6325;0.5794;
1347.9000;0.6317;0.5769;
1348.2000;0.6325;0.5693;
1348.5000;0.6333;0.5819;
1348.8000;0.6341;0.5844;
1349.1000;0.6300;0.5794;
1349.4000;0.6292;0.5718;
1349.7000;0.6341;0.5869;
1350.0000;0.6333;0.5869;
1350.3000;0.6325;0.5844;
1350.6000;0.6333;0.5894;
1350.9000;0.6317;0.5894;
1351.2000;0.6341;0.5995;
1351.5000;0.6309;0.5995;
1351.8000;0.6325;0.6071;
1352.1000;0.6333;0.6121;
1352.4000;0.6325;0.6071;
1352.7000;0.6317;0.6071;
1353.0000;0.6309;0.5945;
1353.3000;0.6309;0.5995;
1353.6000;0.6317;0.6071;
1353.9000;0.6325;0.5995;
1354.2000;0.6317;0.5970;
1354.5000;0.6325;0.6020;
1354.8000;0.6325;0.6020;
1355.1000;0.6398;0.6297;
1355.4000;0.6325;0.6071;
1355.7000;0.6333;0.6096;
1356.0000;0.6260;0.5894;
1356.3000;0.6317;0.6121;
1356.6000;0.6325;0.6046;
1356.9000;0.6341;0.6146;
1357.2000;0.6300;0.6020;
1357.5000;0.6317;0.6046;
1357.8000;0.6317;0.5995;
1358.1000;0.6309;0.5894;
1358.4000;0.6317;0.5819;
1358.7000;0.6325;0.5869;
1359.0000;0.6341;0.5869;
1359.3000;0.6374;0.5970;
1359.6000;0.6325;0.5844;
1359.9000;0.6349;0.5945;
1360.2000;0.6325;0.5970;
1360.5000;0.6317;0.5920;
1360.8000;0.6325;0.5970;
1361.1000;0.6325;0.6020;
1361.4000;0.6333;0.5970;
1361.7000;0.6357;0.6046;
1362.0000;0.6357;0.6071;
1362.3000;0.6333;0.5970;
1362.6000;0.6317;0.5920;
1362.9000;0.6349;0.6071;
1363.2000;0.6300;0.5995;
1363.5000;0.6325;0.6046;
1363.8000;0.6406;0.6247;
1364.1000;0.6260;0.5894;
1364.4000;0.6284;0.5920;
1364.7000;0.6349;0.6020;
1365.0000;0.6365;0.6096;
1365.3000;0.6357;0.6020;
1365.6000;0.6309;0.5844;
1365.9000;0.6317;0.5869;
1366.2000;0.6325;0.5920;
1366.5000;0.6325;0.5894;
1366.8000;0.6341;0.5970;
1367.1000;0.6325;0.5894;
1367.4000;0.6357;0.6121;
1367.7000;0.6325;0.6046;
1368.0000;0.6317;0.6096;
1368.3000;0.6325;0.6071;
1368.6000;0.6325;0.6046;
1368.9000;0.6292;0.5945;
1369.2000;0.6317;0.5970;
1369.5000;0.6309;0.5920;
1369.8000;0.6325;0.5894;
1370.1000;0.6325;0.5945;
1370.4000;0.6325;0.5945;
1370.7000;0.6309;0.5844;
1371.0000;0.6300;0.5794;
1371.3000;0.6325;0.5894;
1371.6000;0.6317;0.5894;
1371.9000;0.6349;0.6071;
1372.2000;0.6325;0.5920;
1372.5000;0.6341;0.6046;
1372.8000;0.6325;0.5970;
1373.1000;0.6333;0.5970;
1373.4000;0.6317;0.5920;
1373.7000;0.6325;0.5894;
1374.0000;0.6325;0.5844;
1374.3000;0.6341;0.5844;
1374.6000;0.6309;0.5819;
1374.9000;0.6325;0.5894;
1375.2000;0.6317;0.5945;
1375.5000;0.6317;0.5945;
1375.8000;0.6333;0.5945;
1376.1000;0.6292;0.5743;
1376.4000;0.6333;0.5894;
1376.7000;0.6317;0.5894;
1377.0000;0.6325;0.5945;
1377.3000;0.6325;0.5894;
1377.6000;0.6325;0.5894;
1377.9000;0.6382;0.6121;
1378.2000;0.6276;0.5869;
1378.5000;0.6309;0.5920;
1378.8000;0.6325;0.5894;
1379.1000;0.6317;0.5844;
1379.4000;0.6300;0.5794;
1379.7000;0.6325;0.5844;
1380.0000;0.6309;0.5844;
1380.3000;0.6325;0.5894;
1380.6000;0.6333;0.5894;
1380.9000;0.6309;0.5844;
1381.2000;0.6309;0.5844;
1381.5000;0.6300;0.5794;
1381.8000;0.6325;0.5844;
1382.1000;0.6300;0.5844;
1382.4000;0.6309;0.5894;
1382.7000;0.6325;0.6071;
1383.0000;0.6300;0.6020;
1383.3000;0.6325;0.5995;
1383.6000;0.6309;0.5894;
1383.9000;0.6300;0.5869;
1384.2000;0.6325;0.5970;
1384.5000;0.6325;0.5920;
1384.8000;0.6325;0.5920;
1385.1000;0.6309;0.5945;
1385.4000;0.6309;0.6096;
1385.7000;0.6325;0.6071;
1386.0000;0.6341;0.6172;
1386.3000;0.6333;0.6020;
1386.6000;0.6341;0.5995;
1386.9000;0.6325;0.5970;
1387.2000;0.6325;0.5995;
1387.5000;0.6325;0.5995;
1387.8000;0.6300;0.5970;
1388.1000;0.6317;0.6071;
1388.4000;0.6325;0.6046;
1388.7000;0.6333;0.6020;
1389.0000;0.6317;0.5920;
1389.3000;0.6349;0.5970;
1389.6000;0.6333;0.5869;
1389.9000;0.6300;0.5844;
1390.2000;0.6325;0.5945;
1390.5000;0.6325;0.6020;
1390.8000;0.6333;0.6020;
1391.1000;0.6325;0.5995;
1391.4000;0.6325;0.5970;
1391.7000;0.6325;0.5945;
1392.0000;0.6333;0.5995;
1392.3000;0.6317;0.5920;
1392.6000;0.6374;0.6071;
1392.9000;0.6325;0.5945;
1393.2000;0.6325;0.5945;
1393.5000;0.6317;0.5945;
1393.8000;0.6309;0.5945;
1394.1000;0.6309;0.5920;
1394.4000;0.6300;0.5920;
1394.7000;0.6325;0.5844;
1395.0000;0.6300;0.5869;
1395.3000;0.6300;0.5894;
1395.6000;0.6325;0.5819;
1395.9000;0.6317;0.5819;
1396.2000;0.6300;0.5894;
1396.5000;0.6309;0.5894;
1396.8000;0.6243;0.5693;
1397.1000;0.6317;0.5894;
1397.4000;0.6325;0.5945;
1397.7000;0.6309;0.5869;
1398.0000;0.6325;0.5844;
1398.3000;0.6325;0.5920;
1398.6000;0.6333;0.5995;
1398.9000;0.6317;0.5920;
1399.2000;0.6317;0.5869;
1399.5000;0.6325;0.5945;
1399.8000;0.6325;0.5970;
