time/ms;Fluo/V;P700 deltaI/I x10³;
-199.8000;0.7123;0.6423;
-199.5000;0.7114;0.6398;
-199.2000;0.7123;0.6449;
-198.9000;0.7155;0.6524;
-198.6000;0.7114;0.6297;
-198.3000;0.7041;0.6172;
-198.0000;0.7114;0.6272;
-197.7000;0.7123;0.6373;
-197.4000;0.7074;0.6323;
-197.1000;0.7139;0.6398;
-196.8000;0.7090;0.6272;
-196.5000;0.7114;0.6297;
-196.2000;0.7131;0.6348;
-195.9000;0.7123;0.6449;
-195.6000;0.7131;0.6449;
-195.3000;0.7131;0.6398;
-195.0000;0.7123;0.6398;
-194.7000;0.7123;0.6323;
-194.4000;0.7155;0.6398;
-194.1000;0.7106;0.6247;
-193.8000;0.7106;0.6323;
-193.5000;0.7155;0.6423;
-193.2000;0.7139;0.6398;
-192.9000;0.7123;0.6423;
-192.6000;0.7114;0.6423;
-192.3000;0.7098;0.6373;
-192.0000;0.7114;0.6272;
-191.7000;0.7123;0.6297;
-191.4000;0.7131;0.6297;
-191.1000;0.7123;0.6197;
-190.8000;0.7106;0.6222;
-190.5000;0.7114;0.6323;
-190.2000;0.7123;0.6247;
-189.9000;0.7114;0.6323;
-189.6000;0.7123;0.6348;
-189.3000;0.7131;0.6323;
-189.0000;0.7114;0.6247;
-188.7000;0.7123;0.6222;
-188.4000;0.7123;0.6172;
-188.1000;0.7131;0.6222;
-187.8000;0.7131;0.6297;
-187.5000;0.7106;0.6222;
-187.2000;0.7106;0.6222;
-186.9000;0.7114;0.6172;
-186.6000;0.7131;0.6172;
-186.3000;0.7106;0.6172;
-186.0000;0.7114;0.6172;
-185.7000;0.7123;0.6172;
-185.4000;0.7123;0.6247;
-185.1000;0.7123;0.6323;
-184.8000;0.7123;0.6323;
-184.5000;0.7123;0.6398;
-184.2000;0.7155;0.6549;
-183.9000;0.7106;0.6423;
-183.6000;0.7171;0.6549;
-183.3000;0.7163;0.6575;
-183.0000;0.7074;0.6423;
-182.7000;0.7123;0.6524;
-182.4000;0.7123;0.6449;
-182.1000;0.7123;0.6625;
-181.8000;0.7114;0.6575;
-181.5000;0.7106;0.6600;
-181.2000;0.7106;0.6549;
-180.9000;0.7041;0.6222;
-180.6000;0.7106;0.6373;
-180.3000;0.7106;0.6373;
-180.0000;0.7106;0.6398;
-179.7000;0.7114;0.6348;
-179.4000;0.7123;0.6323;
-179.1000;0.7123;0.6474;
-178.8000;0.7155;0.6549;
-178.5000;0.7114;0.6398;
-178.2000;0.7114;0.6398;
-177.9000;0.7106;0.6297;
-177.6000;0.7123;0.6272;
-177.3000;0.7123;0.6323;
-177.0000;0.7114;0.6348;
-176.7000;0.7123;0.6348;
-176.4000;0.7123;0.6323;
-176.1000;0.7106;0.6172;
-175.8000;0.7114;0.6272;
-175.5000;0.7106;0.6222;
-175.2000;0.7106;0.6247;
-174.9000;0.7131;0.6398;
-174.6000;0.7106;0.6373;
-174.3000;0.7114;0.6549;
-174.0000;0.7123;0.6650;
-173.7000;0.7114;0.6549;
-173.4000;0.7123;0.6675;
-173.1000;0.7123;0.6701;
-172.8000;0.7057;0.6549;
-172.5000;0.7123;0.6625;
-172.2000;0.7114;0.6575;
-171.9000;0.7090;0.6524;
-171.6000;0.7114;0.6575;
-171.3000;0.7123;0.6625;
-171.0000;0.7123;0.6600;
-170.7000;0.7131;0.6549;
-170.4000;0.7123;0.6474;
-170.1000;0.7123;0.6373;
-169.8000;0.7131;0.6398;
-169.5000;0.7163;0.6398;
-169.2000;0.7131;0.6297;
-168.9000;0.7123;0.6373;
-168.6000;0.7114;0.6449;
-168.3000;0.7123;0.6449;
-168.0000;0.7114;0.6499;
-167.7000;0.7106;0.6449;
-167.4000;0.7131;0.6398;
-167.1000;0.7114;0.6373;
-166.8000;0.7106;0.6272;
-166.5000;0.7123;0.6222;
-166.2000;0.7131;0.6272;
-165.9000;0.7098;0.6197;
-165.6000;0.7106;0.6222;
-165.3000;0.7114;0.6172;
-165.0000;0.7114;0.6222;
-164.7000;0.7074;0.6096;
-164.4000;0.7114;0.6197;
-164.1000;0.7123;0.6197;
-163.8000;0.7123;0.6172;
-163.5000;0.7123;0.6222;
-163.2000;0.7098;0.6146;
-162.9000;0.7131;0.6146;
-162.6000;0.7123;0.6071;
-162.3000;0.7106;0.5945;
-162.0000;0.7114;0.5970;
-161.7000;0.7098;0.5995;
-161.4000;0.7049;0.5995;
-161.1000;0.7114;0.6197;
-160.8000;0.7106;0.6146;
-160.5000;0.7196;0.6373;
-160.2000;0.7098;0.6172;
-159.9000;0.7066;0.6046;
-159.6000;0.7098;0.6121;
-159.3000;0.7131;0.6247;
-159.0000;0.7098;0.6121;
-158.7000;0.7098;0.6121;
-158.4000;0.7098;0.6096;
-158.1000;0.7090;0.6046;
-157.8000;0.7114;0.6096;
-157.5000;0.7098;0.6071;
-157.2000;0.7114;0.6146;
-156.9000;0.7106;0.6121;
-156.6000;0.7106;0.6071;
-156.3000;0.7123;0.6046;
-156.0000;0.7098;0.6046;
-155.7000;0.7123;0.6096;
-155.4000;0.7106;0.6121;
-155.1000;0.7106;0.6071;
-154.8000;0.7123;0.6096;
-154.5000;0.7123;0.6121;
-154.2000;0.7057;0.5970;
-153.9000;0.7114;0.6071;
-153.6000;0.7098;0.6020;
-153.3000;0.7123;0.6096;
-153.0000;0.7131;0.6046;
-152.7000;0.7106;0.6046;
-152.4000;0.7139;0.6146;
-152.1000;0.7123;0.6096;
-151.8000;0.7123;0.6121;
-151.5000;0.7098;0.5995;
-151.2000;0.7114;0.6046;
-150.9000;0.7114;0.6121;
-150.6000;0.7114;0.6121;
-150.3000;0.7131;0.6197;
-150.0000;0.7114;0.6222;
-149.7000;0.7123;0.6272;
-149.4000;0.7139;0.6272;
-149.1000;0.7123;0.6197;
-148.8000;0.7114;0.6247;
-148.5000;0.7131;0.6272;
-148.2000;0.7114;0.6247;
-147.9000;0.7114;0.6272;
-147.6000;0.7163;0.6247;
-147.3000;0.7123;0.6121;
-147.0000;0.7123;0.6096;
-146.7000;0.7123;0.6272;
-146.4000;0.7106;0.6222;
-146.1000;0.7114;0.6197;
-145.8000;0.7131;0.6146;
-145.5000;0.7131;0.6247;
-145.2000;0.7123;0.6222;
-144.9000;0.7123;0.6197;
-144.6000;0.7098;0.6121;
-144.3000;0.7106;0.6071;
-144.0000;0.7106;0.5995;
-143.7000;0.7123;0.5995;
-143.4000;0.7123;0.5970;
-143.1000;0.7139;0.6046;
-142.8000;0.7131;0.6071;
-142.5000;0.7139;0.6020;
-142.2000;0.7131;0.5995;
-141.9000;0.7114;0.6071;
-141.6000;0.7131;0.6172;
-141.3000;0.7098;0.6096;
-141.0000;0.7123;0.6121;
-140.7000;0.7114;0.6046;
-140.4000;0.7057;0.5844;
-140.1000;0.7123;0.5970;
-139.8000;0.7106;0.5970;
-139.5000;0.7114;0.6020;
-139.2000;0.7147;0.6121;
-138.9000;0.7123;0.6121;
-138.6000;0.7057;0.6096;
-138.3000;0.7171;0.6348;
-138.0000;0.7114;0.6247;
-137.7000;0.7106;0.6247;
-137.4000;0.7098;0.6272;
-137.1000;0.7106;0.6348;
-136.8000;0.7106;0.6247;
-136.5000;0.7139;0.6197;
-136.2000;0.7090;0.6197;
-135.9000;0.7090;0.6121;
-135.6000;0.7106;0.6197;
-135.3000;0.7041;0.6121;
-135.0000;0.7098;0.6222;
-134.7000;0.7123;0.6323;
-134.4000;0.7131;0.6297;
-134.1000;0.7098;0.6197;
-133.8000;0.7123;0.6272;
-133.5000;0.7123;0.6323;
-133.2000;0.7123;0.6348;
-132.9000;0.7131;0.6348;
-132.6000;0.7114;0.6247;
-132.3000;0.7131;0.6172;
-132.0000;0.7123;0.6121;
-131.7000;0.7147;0.6272;
-131.4000;0.7131;0.6247;
-131.1000;0.7114;0.6247;
-130.8000;0.7114;0.6197;
-130.5000;0.7114;0.6121;
-130.2000;0.7106;0.6046;
-129.9000;0.7106;0.6096;
-129.6000;0.7114;0.6172;
-129.3000;0.7131;0.6272;
-129.0000;0.7123;0.6348;
-128.7000;0.7114;0.6348;
-128.4000;0.7131;0.6373;
-128.1000;0.7114;0.6348;
-127.8000;0.7131;0.6323;
-127.5000;0.7123;0.6272;
-127.2000;0.7123;0.6348;
-126.9000;0.7123;0.6348;
-126.6000;0.7123;0.6272;
-126.3000;0.7106;0.6247;
-126.0000;0.7123;0.6323;
-125.7000;0.7114;0.6247;
-125.4000;0.7106;0.6172;
-125.1000;0.7123;0.6146;
-124.8000;0.7114;0.6096;
-124.5000;0.7057;0.5920;
-124.2000;0.7123;0.6096;
-123.9000;0.7123;0.6247;
-123.6000;0.7114;0.6121;
-123.3000;0.7106;0.6071;
-123.0000;0.7114;0.6096;
-122.7000;0.7114;0.6146;
-122.4000;0.7123;0.6096;
-122.1000;0.7123;0.6071;
-121.8000;0.7106;0.6020;
-121.5000;0.7090;0.5970;
-121.2000;0.7114;0.6020;
-120.9000;0.7123;0.6071;
-120.6000;0.7131;0.6172;
-120.3000;0.7114;0.6197;
-120.0000;0.7114;0.6222;
-119.7000;0.7114;0.6247;
-119.4000;0.7147;0.6398;
-119.1000;0.7123;0.6348;
-118.8000;0.7114;0.6272;
-118.5000;0.7131;0.6247;
-118.2000;0.7106;0.6222;
-117.9000;0.7114;0.6247;
-117.6000;0.7123;0.6247;
-117.3000;0.7114;0.6247;
-117.0000;0.7131;0.6197;
-116.7000;0.7123;0.6121;
-116.4000;0.7139;0.6172;
-116.1000;0.7106;0.6121;
-115.8000;0.7106;0.6146;
-115.5000;0.7114;0.6272;
-115.2000;0.7131;0.6297;
-114.9000;0.7106;0.6272;
-114.6000;0.7057;0.6096;
-114.3000;0.7114;0.6146;
-114.0000;0.7098;0.6247;
-113.7000;0.7090;0.6247;
-113.4000;0.7082;0.6247;
-113.1000;0.7106;0.6297;
-112.8000;0.7106;0.6297;
-112.5000;0.7123;0.6348;
-112.2000;0.7098;0.6272;
-111.9000;0.7106;0.6272;
-111.6000;0.7098;0.6197;
-111.3000;0.7147;0.6373;
-111.0000;0.7123;0.6297;
-110.7000;0.7082;0.6222;
-110.4000;0.7090;0.6172;
-110.1000;0.7106;0.6197;
-109.8000;0.7090;0.6197;
-109.5000;0.7082;0.6121;
-109.2000;0.7098;0.6172;
-108.9000;0.7123;0.6197;
-108.6000;0.7139;0.6197;
-108.3000;0.7106;0.6096;
-108.0000;0.7098;0.6146;
-107.7000;0.7114;0.6197;
-107.4000;0.7131;0.6247;
-107.1000;0.7163;0.6247;
-106.8000;0.7114;0.6222;
-106.5000;0.7123;0.6297;
-106.2000;0.7131;0.6272;
-105.9000;0.7114;0.6197;
-105.6000;0.7106;0.6197;
-105.3000;0.7114;0.6197;
-105.0000;0.7106;0.6222;
-104.7000;0.7114;0.6323;
-104.4000;0.7106;0.6222;
-104.1000;0.7131;0.6348;
-103.8000;0.7106;0.6272;
-103.5000;0.7139;0.6348;
-103.2000;0.7123;0.6323;
-102.9000;0.7106;0.6297;
-102.6000;0.7114;0.6373;
-102.3000;0.7123;0.6474;
-102.0000;0.7114;0.6423;
-101.7000;0.7147;0.6524;
-101.4000;0.7123;0.6423;
-101.1000;0.7139;0.6499;
-100.8000;0.7090;0.6449;
-100.5000;0.7057;0.6272;
-100.2000;0.7106;0.6348;
-99.9000;0.7123;0.6398;
-99.6000;0.7123;0.6474;
-99.3000;0.7057;0.6297;
-99.0000;0.7106;0.6499;
-98.7000;0.7163;0.6650;
-98.4000;0.7114;0.6524;
-98.1000;0.7106;0.6474;
-97.8000;0.7090;0.6423;
-97.5000;0.7098;0.6449;
-97.2000;0.7114;0.6398;
-96.9000;0.7114;0.6348;
-96.6000;0.7106;0.6323;
-96.3000;0.7106;0.6373;
-96.0000;0.7114;0.6348;
-95.7000;0.7114;0.6398;
-95.4000;0.7098;0.6373;
-95.1000;0.7114;0.6398;
-94.8000;0.7139;0.6373;
-94.5000;0.7106;0.6197;
-94.2000;0.7106;0.6146;
-93.9000;0.7106;0.6071;
-93.6000;0.7106;0.6046;
-93.3000;0.7147;0.6197;
-93.0000;0.7106;0.6121;
-92.7000;0.7106;0.6121;
-92.4000;0.7114;0.6197;
-92.1000;0.7106;0.6222;
-91.8000;0.7123;0.6172;
-91.5000;0.7114;0.6071;
-91.2000;0.7106;0.6096;
-90.9000;0.7114;0.6121;
-90.6000;0.7114;0.6096;
-90.3000;0.7106;0.6020;
-90.0000;0.7090;0.6020;
-89.7000;0.7106;0.6146;
-89.4000;0.7123;0.6197;
-89.1000;0.7114;0.6247;
-88.8000;0.7106;0.6146;
-88.5000;0.7090;0.6146;
-88.2000;0.7066;0.6020;
-87.9000;0.7106;0.6172;
-87.6000;0.7057;0.6046;
-87.3000;0.7049;0.6020;
-87.0000;0.7106;0.6121;
-86.7000;0.7139;0.6172;
-86.4000;0.7098;0.6146;
-86.1000;0.7106;0.6146;
-85.8000;0.7090;0.6121;
-85.5000;0.7090;0.6197;
-85.2000;0.7066;0.6222;
-84.9000;0.7139;0.6348;
-84.6000;0.7098;0.6197;
-84.3000;0.7106;0.6222;
-84.0000;0.7098;0.6172;
-83.7000;0.7090;0.6172;
-83.4000;0.7114;0.6071;
-83.1000;0.7196;0.6323;
-82.8000;0.7090;0.6020;
-82.5000;0.7106;0.6096;
-82.2000;0.7123;0.6172;
-81.9000;0.7098;0.6172;
-81.6000;0.7123;0.6297;
-81.3000;0.7131;0.6297;
-81.0000;0.7090;0.6172;
-80.7000;0.7123;0.6222;
-80.4000;0.7147;0.6247;
-80.1000;0.7123;0.6297;
-79.8000;0.7123;0.6348;
-79.5000;0.7131;0.6348;
-79.2000;0.7114;0.6197;
-78.9000;0.7114;0.6247;
-78.6000;0.7131;0.6222;
-78.3000;0.7114;0.6096;
-78.0000;0.7123;0.6197;
-77.7000;0.7123;0.6247;
-77.4000;0.7123;0.6272;
-77.1000;0.7114;0.6197;
-76.8000;0.7131;0.6247;
-76.5000;0.7106;0.6197;
-76.2000;0.7123;0.6222;
-75.9000;0.7106;0.6272;
-75.6000;0.7131;0.6222;
-75.3000;0.7106;0.6146;
-75.0000;0.7114;0.6121;
-74.7000;0.7147;0.6146;
-74.4000;0.7106;0.6096;
-74.1000;0.7114;0.5995;
-73.8000;0.7106;0.5995;
-73.5000;0.7114;0.6146;
-73.2000;0.7106;0.6096;
-72.9000;0.7123;0.6071;
-72.6000;0.7106;0.6121;
-72.3000;0.7123;0.6146;
-72.0000;0.7114;0.6272;
-71.7000;0.7131;0.6323;
-71.4000;0.7098;0.6247;
-71.1000;0.7106;0.6297;
-70.8000;0.7114;0.6297;
-70.5000;0.7114;0.6272;
-70.2000;0.7106;0.6247;
-69.9000;0.7123;0.6323;
-69.6000;0.7155;0.6398;
-69.3000;0.7147;0.6297;
-69.0000;0.7106;0.6121;
-68.7000;0.7147;0.6297;
-68.4000;0.7131;0.6297;
-68.1000;0.7131;0.6247;
-67.8000;0.7155;0.6348;
-67.5000;0.7139;0.6222;
-67.2000;0.7131;0.6272;
-66.9000;0.7131;0.6272;
-66.6000;0.7204;0.6449;
-66.3000;0.7106;0.6197;
-66.0000;0.7106;0.6222;
-65.7000;0.7098;0.6172;
-65.4000;0.7131;0.6323;
-65.1000;0.7147;0.6423;
-64.8000;0.7147;0.6423;
-64.5000;0.7114;0.6297;
-64.2000;0.7106;0.6297;
-63.9000;0.7090;0.6172;
-63.6000;0.7106;0.6172;
-63.3000;0.7098;0.6121;
-63.0000;0.7106;0.6197;
-62.7000;0.7041;0.6071;
-62.4000;0.7123;0.6247;
-62.1000;0.7114;0.6172;
-61.8000;0.7114;0.6197;
-61.5000;0.7131;0.6323;
-61.2000;0.7106;0.6247;
-60.9000;0.7106;0.6323;
-60.6000;0.7098;0.6272;
-60.3000;0.7106;0.6323;
-60.0000;0.7123;0.6348;
-59.7000;0.7131;0.6348;
-59.4000;0.7090;0.6323;
-59.1000;0.7106;0.6272;
-58.8000;0.7123;0.6272;
-58.5000;0.7114;0.6197;
-58.2000;0.7114;0.6146;
-57.9000;0.7114;0.6172;
-57.6000;0.7123;0.6121;
-57.3000;0.7114;0.6046;
-57.0000;0.7098;0.6020;
-56.7000;0.7114;0.6121;
-56.4000;0.7123;0.6071;
-56.1000;0.7139;0.6096;
-55.8000;0.7114;0.6046;
-55.5000;0.7090;0.6020;
-55.2000;0.7131;0.6096;
-54.9000;0.7131;0.6197;
-54.6000;0.7106;0.6172;
-54.3000;0.7123;0.6247;
-54.0000;0.7123;0.6323;
-53.7000;0.7098;0.6247;
-53.4000;0.7123;0.6222;
-53.1000;0.7106;0.6121;
-52.8000;0.7074;0.6096;
-52.5000;0.7220;0.6423;
-52.2000;0.7106;0.6197;
-51.9000;0.7106;0.6172;
-51.6000;0.7090;0.6071;
-51.3000;0.7098;0.6146;
-51.0000;0.7147;0.6297;
-50.7000;0.7123;0.6297;
-50.4000;0.7163;0.6297;
-50.1000;0.7114;0.6297;
-49.8000;0.7123;0.6297;
-49.5000;0.7123;0.6272;
-49.2000;0.7106;0.6323;
-48.9000;0.7123;0.6323;
-48.6000;0.7098;0.6323;
-48.3000;0.7114;0.6348;
-48.0000;0.7114;0.6373;
-47.7000;0.7131;0.6449;
-47.4000;0.7131;0.6499;
-47.1000;0.7131;0.6449;
-46.8000;0.7106;0.6398;
-46.5000;0.7155;0.6373;
-46.2000;0.7147;0.6373;
-45.9000;0.7131;0.6323;
-45.6000;0.7139;0.6297;
-45.3000;0.7131;0.6272;
-45.0000;0.7106;0.6197;
-44.7000;0.7147;0.6247;
-44.4000;0.7106;0.6197;
-44.1000;0.7098;0.6121;
-43.8000;0.7033;0.5970;
-43.5000;0.7123;0.6222;
-43.2000;0.7114;0.6247;
-42.9000;0.7114;0.6247;
-42.6000;0.7131;0.6348;
-42.3000;0.7131;0.6423;
-42.0000;0.7106;0.6373;
-41.7000;0.7114;0.6348;
-41.4000;0.7114;0.6323;
-41.1000;0.7155;0.6423;
-40.8000;0.7179;0.6398;
-40.5000;0.7123;0.6297;
-40.2000;0.7106;0.6297;
-39.9000;0.7114;0.6297;
-39.6000;0.7114;0.6197;
-39.3000;0.7106;0.6071;
-39.0000;0.7123;0.6121;
-38.7000;0.7098;0.6096;
-38.4000;0.7123;0.6146;
-38.1000;0.7082;0.6096;
-37.8000;0.7106;0.6146;
-37.5000;0.7114;0.6172;
-37.2000;0.7114;0.6096;
-36.9000;0.7123;0.6071;
-36.6000;0.7106;0.6121;
-36.3000;0.7131;0.6096;
-36.0000;0.7114;0.6071;
-35.7000;0.7041;0.5844;
-35.4000;0.7123;0.6071;
-35.1000;0.7114;0.6096;
-34.8000;0.7098;0.6096;
-34.5000;0.7114;0.6121;
-34.2000;0.7123;0.6096;
-33.9000;0.7123;0.6121;
-33.6000;0.7114;0.6096;
-33.3000;0.7114;0.6096;
-33.0000;0.7106;0.6071;
-32.7000;0.7106;0.6071;
-32.4000;0.7090;0.6071;
-32.1000;0.7114;0.6046;
-31.8000;0.7131;0.6172;
-31.5000;0.7114;0.6172;
-31.2000;0.7106;0.6146;
-30.9000;0.7114;0.6197;
-30.6000;0.7147;0.6297;
-30.3000;0.7106;0.6272;
-30.0000;0.7098;0.6222;
-29.7000;0.7090;0.6247;
-29.4000;0.7082;0.6348;
-29.1000;0.7106;0.6373;
-28.8000;0.7082;0.6323;
-28.5000;0.7106;0.6272;
-28.2000;0.7114;0.6222;
-27.9000;0.7114;0.6222;
-27.6000;0.7155;0.6373;
-27.3000;0.7131;0.6323;
-27.0000;0.7123;0.6197;
-26.7000;0.7090;0.6096;
-26.4000;0.7114;0.6096;
-26.1000;0.7131;0.6121;
-25.8000;0.7131;0.6121;
-25.5000;0.7139;0.6096;
-25.2000;0.7106;0.5970;
-24.9000;0.7131;0.5995;
-24.6000;0.7114;0.5894;
-24.3000;0.7114;0.5920;
-24.0000;0.7106;0.5945;
-23.7000;0.7114;0.6020;
-23.4000;0.7131;0.6020;
-23.1000;0.7114;0.6046;
-22.8000;0.7114;0.6121;
-22.5000;0.7114;0.6096;
-22.2000;0.7163;0.6172;
-21.9000;0.7106;0.6096;
-21.6000;0.7131;0.6197;
-21.3000;0.7123;0.6197;
-21.0000;0.7074;0.6071;
-20.7000;0.7131;0.6247;
-20.4000;0.7106;0.6222;
-20.1000;0.7106;0.6272;
-19.8000;0.7106;0.6297;
-19.5000;0.7123;0.6272;
-19.2000;0.7139;0.6297;
-18.9000;0.7090;0.6197;
-18.6000;0.7090;0.6172;
-18.3000;0.7114;0.6197;
-18.0000;0.7106;0.6247;
-17.7000;0.7114;0.6222;
-17.4000;0.7106;0.6121;
-17.1000;0.7114;0.6197;
-16.8000;0.7114;0.6297;
-16.5000;0.7114;0.6297;
-16.2000;0.7106;0.6222;
-15.9000;0.7163;0.6348;
-15.6000;0.7139;0.6222;
-15.3000;0.7123;0.6172;
-15.0000;0.7114;0.6146;
-14.7000;0.7098;0.6121;
-14.4000;0.7114;0.6197;
-14.1000;0.7106;0.6146;
-13.8000;0.7082;0.6071;
-13.5000;0.7114;0.6096;
-13.2000;0.7163;0.6197;
-12.9000;0.7106;0.6071;
-12.6000;0.7123;0.6197;
-12.3000;0.7090;0.6071;
-12.0000;0.7114;0.6146;
-11.7000;0.7123;0.6146;
-11.4000;0.7123;0.6172;
-11.1000;0.7114;0.6247;
-10.8000;0.7123;0.6323;
-10.5000;0.7123;0.6272;
-10.2000;0.7131;0.6297;
-9.9000;0.7106;0.6272;
-9.6000;0.7139;0.6373;
-9.3000;0.7131;0.6398;
-9.0000;0.7114;0.6222;
-8.7000;0.7139;0.6247;
-8.4000;0.7139;0.6272;
-8.1000;0.7123;0.6197;
-7.8000;0.7114;0.6222;
-7.5000;0.7114;0.6172;
-7.2000;0.7074;0.6020;
-6.9000;0.7106;0.6146;
-6.6000;0.7114;0.6197;
-6.3000;0.7106;0.6247;
-6.0000;0.7098;0.6197;
-5.7000;0.7082;0.6197;
-5.4000;0.7090;0.6197;
-5.1000;0.7114;0.6348;
-4.8000;0.7106;0.6423;
-4.5000;0.7098;0.6423;
-4.2000;0.7131;0.6373;
-3.9000;0.7114;0.6297;
-3.6000;0.7106;0.6222;
-3.3000;0.7082;0.6197;
-3.0000;0.7106;0.6272;
-2.7000;0.7131;0.6197;
-2.4000;0.7106;0.6222;
-2.1000;0.7114;0.6272;
-1.8000;0.7123;0.6272;
-1.5000;0.7123;0.6272;
-1.2000;0.7139;0.6373;
-0.9000;0.7114;0.6348;
-0.6000;0.7098;0.6272;
-0.3000;0.7106;0.6272;
0.0000;0.7106;0.6272;
0.3000;0.7391;0.6373;
0.6000;0.7888;0.6902;
0.9000;0.8262;0.7456;
1.2000;0.8563;0.7834;
1.5000;0.8759;0.8136;
1.8000;0.8954;0.8413;
2.1000;0.9084;0.8741;
2.4000;0.9214;0.8993;
2.7000;0.9320;0.9119;
3.0000;0.9402;0.9270;
3.3000;0.9508;0.9446;
3.6000;0.9540;0.9522;
3.9000;0.9589;0.9572;
4.2000;0.9646;0.9522;
4.5000;0.9695;0.9572;
4.8000;0.9727;0.9547;
5.1000;0.9784;0.9572;
5.4000;0.9809;0.9547;
5.7000;0.9858;0.9597;
6.0000;0.9890;0.9572;
6.3000;0.9955;0.9648;
6.6000;0.9972;0.9572;
6.9000;0.9955;0.9547;
7.2000;1.0020;0.9597;
7.5000;1.0045;0.9572;
7.8000;1.0102;0.9597;
8.1000;1.0118;0.9723;
8.4000;1.0142;0.9799;
8.7000;1.0167;0.9774;
9.0000;1.0183;0.9849;
9.3000;1.0175;0.9749;
9.6000;1.0240;0.9900;
9.9000;1.0289;0.9950;
10.2000;1.0297;0.9925;
10.5000;1.0322;0.9900;
10.8000;1.0330;0.9774;
11.1000;1.0379;0.9749;
11.4000;1.0403;0.9774;
11.7000;1.0411;0.9723;
12.0000;1.0435;0.9749;
12.3000;1.0476;0.9799;
12.6000;1.0476;0.9799;
12.9000;1.0566;0.9950;
13.2000;1.0525;0.9799;
13.5000;1.0549;0.9900;
13.8000;1.0574;0.9874;
14.1000;1.0574;0.9849;
14.4000;1.0582;0.9774;
14.7000;1.0631;0.9774;
15.0000;1.0663;0.9774;
15.3000;1.0672;0.9673;
15.6000;1.0680;0.9673;
15.9000;1.0704;0.9673;
16.2000;1.0729;0.9648;
16.5000;1.0737;0.9648;
16.8000;1.0712;0.9572;
17.1000;1.0745;0.9572;
17.4000;1.0761;0.9673;
17.7000;1.0777;0.9749;
18.0000;1.0794;0.9749;
18.3000;1.0794;0.9723;
18.6000;1.0834;0.9749;
18.9000;1.0851;0.9749;
19.2000;1.0859;0.9648;
19.5000;1.0859;0.9597;
19.8000;1.0883;0.9673;
20.1000;1.0891;0.9648;
20.4000;1.0924;0.9749;
20.7000;1.0924;0.9774;
21.0000;1.0916;0.9673;
21.3000;1.0932;0.9623;
21.6000;1.0940;0.9623;
21.9000;1.0948;0.9547;
22.2000;1.0948;0.9572;
22.5000;1.0965;0.9698;
22.8000;1.0973;0.9774;
23.1000;1.0981;0.9698;
23.4000;1.1005;0.9824;
23.7000;1.1013;0.9799;
24.0000;1.1022;0.9698;
24.3000;1.1022;0.9723;
24.6000;1.1005;0.9698;
24.9000;1.1030;0.9799;
25.2000;1.1046;0.9849;
25.5000;1.1070;0.9749;
25.8000;1.1070;0.9648;
26.1000;1.1087;0.9648;
26.4000;1.1095;0.9597;
26.7000;1.1087;0.9497;
27.0000;1.1054;0.9522;
27.3000;1.1103;0.9572;
27.6000;1.1168;0.9698;
27.9000;1.1111;0.9522;
28.2000;1.1111;0.9547;
28.5000;1.1127;0.9522;
28.8000;1.1127;0.9497;
29.1000;1.1144;0.9522;
29.4000;1.1160;0.9522;
29.7000;1.1119;0.9446;
30.0000;1.1144;0.9623;
30.3000;1.1184;0.9547;
30.6000;1.1160;0.9497;
30.9000;1.1136;0.9446;
31.2000;1.1193;0.9597;
31.5000;1.1176;0.9547;
31.8000;1.1136;0.9396;
32.1000;1.1168;0.9572;
32.4000;1.1184;0.9597;
32.7000;1.1209;0.9547;
33.0000;1.1209;0.9547;
33.3000;1.1282;0.9723;
33.6000;1.1201;0.9497;
33.9000;1.1184;0.9446;
34.2000;1.1282;0.9623;
34.5000;1.1225;0.9572;
34.8000;1.1258;0.9597;
35.1000;1.1241;0.9497;
35.4000;1.1241;0.9446;
35.7000;1.1249;0.9421;
36.0000;1.1249;0.9446;
36.3000;1.1233;0.9396;
36.6000;1.1258;0.9421;
36.9000;1.1266;0.9320;
37.2000;1.1258;0.9345;
37.5000;1.1249;0.9270;
37.8000;1.1266;0.9320;
38.1000;1.1258;0.9396;
38.4000;1.1258;0.9446;
38.7000;1.1225;0.9396;
39.0000;1.1274;0.9446;
39.3000;1.1315;0.9446;
39.6000;1.1290;0.9396;
39.9000;1.1298;0.9471;
40.2000;1.1298;0.9522;
40.5000;1.1306;0.9623;
40.8000;1.1306;0.9673;
41.1000;1.1290;0.9774;
41.4000;1.1306;0.9698;
41.7000;1.1282;0.9723;
42.0000;1.1306;0.9749;
42.3000;1.1298;0.9547;
42.6000;1.1282;0.9471;
42.9000;1.1298;0.9497;
43.2000;1.1306;0.9522;
43.5000;1.1290;0.9446;
43.8000;1.1306;0.9396;
44.1000;1.1315;0.9396;
44.4000;1.1331;0.9421;
44.7000;1.1339;0.9396;
45.0000;1.1355;0.9446;
45.3000;1.1323;0.9396;
45.6000;1.1372;0.9497;
45.9000;1.1347;0.9471;
46.2000;1.1355;0.9446;
46.5000;1.1331;0.9547;
46.8000;1.1347;0.9497;
47.1000;1.1355;0.9497;
47.4000;1.1282;0.9320;
47.7000;1.1372;0.9522;
48.0000;1.1331;0.9497;
48.3000;1.1347;0.9572;
48.6000;1.1363;0.9497;
48.9000;1.1339;0.9371;
49.2000;1.1355;0.9396;
49.5000;1.1380;0.9522;
49.8000;1.1363;0.9396;
50.1000;1.1380;0.9471;
50.4000;1.1339;0.9345;
50.7000;1.1372;0.9446;
51.0000;1.1331;0.9421;
51.3000;1.1355;0.9522;
51.6000;1.1372;0.9547;
51.9000;1.1363;0.9497;
52.2000;1.1355;0.9320;
52.5000;1.1372;0.9371;
52.8000;1.1363;0.9446;
53.1000;1.1372;0.9471;
53.4000;1.1372;0.9522;
53.7000;1.1404;0.9572;
54.0000;1.1380;0.9471;
54.3000;1.1363;0.9396;
54.6000;1.1372;0.9471;
54.9000;1.1363;0.9471;
55.2000;1.1355;0.9471;
55.5000;1.1363;0.9471;
55.8000;1.1388;0.9497;
56.1000;1.1339;0.9345;
56.4000;1.1380;0.9471;
56.7000;1.1388;0.9522;
57.0000;1.1388;0.9522;
57.3000;1.1420;0.9497;
57.6000;1.1388;0.9396;
57.9000;1.1380;0.9371;
58.2000;1.1380;0.9320;
58.5000;1.1380;0.9446;
58.8000;1.1380;0.9396;
59.1000;1.1388;0.9471;
59.4000;1.1388;0.9522;
59.7000;1.1396;0.9471;
60.0000;1.1380;0.9421;
60.3000;1.1380;0.9371;
60.6000;1.1388;0.9320;
60.9000;1.1420;0.9446;
61.2000;1.1396;0.9371;
61.5000;1.1404;0.9396;
61.8000;1.1388;0.9371;
62.1000;1.1429;0.9471;
62.4000;1.1412;0.9471;
62.7000;1.1412;0.9446;
63.0000;1.1396;0.9471;
63.3000;1.1404;0.9522;
63.6000;1.1388;0.9446;
63.9000;1.1388;0.9421;
64.2000;1.1404;0.9421;
64.5000;1.1420;0.9446;
64.8000;1.1396;0.9421;
65.1000;1.1412;0.9446;
65.4000;1.1404;0.9371;
65.7000;1.1494;0.9597;
66.0000;1.1420;0.9320;
66.3000;1.1429;0.9396;
66.6000;1.1429;0.9421;
66.9000;1.1396;0.9270;
67.2000;1.1437;0.9345;
67.5000;1.1437;0.9446;
67.8000;1.1412;0.9446;
68.1000;1.1380;0.9421;
68.4000;1.1420;0.9522;
68.7000;1.1429;0.9547;
69.0000;1.1412;0.9547;
69.3000;1.1420;0.9522;
69.6000;1.1404;0.9396;
69.9000;1.1437;0.9446;
70.2000;1.1429;0.9371;
70.5000;1.1453;0.9421;
70.8000;1.1429;0.9396;
71.1000;1.1429;0.9446;
71.4000;1.1420;0.9371;
71.7000;1.1437;0.9345;
72.0000;1.1429;0.9295;
72.3000;1.1453;0.9345;
72.6000;1.1429;0.9295;
72.9000;1.1429;0.9371;
73.2000;1.1412;0.9396;
73.5000;1.1420;0.9371;
73.8000;1.1429;0.9446;
74.1000;1.1437;0.9396;
74.4000;1.1412;0.9421;
74.7000;1.1420;0.9446;
75.0000;1.1453;0.9497;
75.3000;1.1445;0.9497;
75.6000;1.1445;0.9623;
75.9000;1.1429;0.9522;
76.2000;1.1461;0.9497;
76.5000;1.1429;0.9471;
76.8000;1.1445;0.9471;
77.1000;1.1437;0.9421;
77.4000;1.1445;0.9345;
77.7000;1.1477;0.9345;
78.0000;1.1453;0.9270;
78.3000;1.1437;0.9169;
78.6000;1.1453;0.9068;
78.9000;1.1445;0.9068;
79.2000;1.1429;0.9043;
79.5000;1.1429;0.9094;
79.8000;1.1429;0.9119;
80.1000;1.1437;0.9144;
80.4000;1.1404;0.9119;
80.7000;1.1445;0.9094;
81.0000;1.1437;0.9094;
81.3000;1.1453;0.9144;
81.6000;1.1453;0.9169;
81.9000;1.1429;0.9094;
82.2000;1.1445;0.9068;
82.5000;1.1445;0.9018;
82.8000;1.1461;0.9043;
83.1000;1.1469;0.9119;
83.4000;1.1461;0.9094;
83.7000;1.1461;0.9043;
84.0000;1.1461;0.9144;
84.3000;1.1469;0.9220;
84.6000;1.1453;0.9144;
84.9000;1.1461;0.9068;
85.2000;1.1453;0.9144;
85.5000;1.1437;0.9194;
85.8000;1.1486;0.9270;
86.1000;1.1477;0.9220;
86.4000;1.1477;0.9270;
86.7000;1.1453;0.9220;
87.0000;1.1469;0.9295;
87.3000;1.1420;0.9169;
87.6000;1.1420;0.9220;
87.9000;1.1461;0.9220;
88.2000;1.1388;0.9068;
88.5000;1.1477;0.9270;
88.8000;1.1445;0.9220;
89.1000;1.1469;0.9245;
89.4000;1.1461;0.9220;
89.7000;1.1445;0.9245;
90.0000;1.1461;0.9270;
90.3000;1.1453;0.9169;
90.6000;1.1445;0.9169;
90.9000;1.1461;0.9245;
91.2000;1.1543;0.9497;
91.5000;1.1469;0.9396;
91.8000;1.1477;0.9396;
92.1000;1.1453;0.9320;
92.4000;1.1477;0.9396;
92.7000;1.1469;0.9396;
93.0000;1.1477;0.9497;
93.3000;1.1453;0.9597;
93.6000;1.1437;0.9471;
93.9000;1.1461;0.9497;
94.2000;1.1477;0.9497;
94.5000;1.1477;0.9522;
94.8000;1.1469;0.9421;
95.1000;1.1445;0.9446;
95.4000;1.1469;0.9471;
95.7000;1.1469;0.9547;
96.0000;1.1445;0.9471;
96.3000;1.1469;0.9421;
96.6000;1.1477;0.9497;
96.9000;1.1461;0.9471;
97.2000;1.1461;0.9522;
97.5000;1.1461;0.9497;
97.8000;1.1469;0.9547;
98.1000;1.1469;0.9597;
98.4000;1.1486;0.9471;
98.7000;1.1477;0.9371;
99.0000;1.1461;0.9295;
99.3000;1.1461;0.9345;
99.6000;1.1461;0.9295;
99.9000;1.1477;0.9345;
100.2000;1.1461;0.9270;
100.5000;1.1477;0.9194;
100.8000;1.1469;0.9245;
101.1000;1.1461;0.9245;
101.4000;1.1461;0.9220;
101.7000;1.1445;0.9270;
102.0000;1.1469;0.9371;
102.3000;1.1469;0.9371;
102.6000;1.1477;0.9371;
102.9000;1.1477;0.9371;
103.2000;1.1486;0.9345;
103.5000;1.1494;0.9345;
103.8000;1.1469;0.9270;
104.1000;1.1461;0.9245;
104.4000;1.1477;0.9345;
104.7000;1.1477;0.9320;
105.0000;1.1461;0.9270;
105.3000;1.1445;0.9220;
105.6000;1.1469;0.9270;
105.9000;1.1477;0.9220;
106.2000;1.1461;0.9270;
106.5000;1.1453;0.9270;
106.8000;1.1469;0.9295;
107.1000;1.1445;0.9295;
107.4000;1.1445;0.9245;
107.7000;1.1469;0.9295;
108.0000;1.1461;0.9169;
108.3000;1.1486;0.9270;
108.6000;1.1486;0.9194;
108.9000;1.1469;0.9144;
109.2000;1.1494;0.9295;
109.5000;1.1461;0.9245;
109.8000;1.1486;0.9220;
110.1000;1.1477;0.9144;
110.4000;1.1445;0.9119;
110.7000;1.1412;0.9043;
111.0000;1.1461;0.9169;
111.3000;1.1445;0.9194;
111.6000;1.1469;0.9169;
111.9000;1.1502;0.9270;
112.2000;1.1486;0.9144;
112.5000;1.1486;0.9094;
112.8000;1.1486;0.9043;
113.1000;1.1437;0.8842;
113.4000;1.1486;0.9043;
113.7000;1.1477;0.9119;
114.0000;1.1469;0.9068;
114.3000;1.1477;0.9094;
114.6000;1.1486;0.9194;
114.9000;1.1469;0.9144;
115.2000;1.1469;0.9119;
115.5000;1.1469;0.9094;
115.8000;1.1469;0.9043;
116.1000;1.1486;0.9094;
116.4000;1.1477;0.9094;
116.7000;1.1477;0.9119;
117.0000;1.1486;0.9119;
117.3000;1.1477;0.9169;
117.6000;1.1469;0.9169;
117.9000;1.1486;0.9169;
118.2000;1.1469;0.9144;
118.5000;1.1477;0.9119;
118.8000;1.1461;0.8993;
119.1000;1.1469;0.9018;
119.4000;1.1477;0.8942;
119.7000;1.1469;0.8892;
120.0000;1.1469;0.8791;
120.3000;1.1477;0.8716;
120.6000;1.1469;0.8716;
120.9000;1.1477;0.8842;
121.2000;1.1551;0.9094;
121.5000;1.1486;0.8892;
121.8000;1.1477;0.8968;
122.1000;1.1469;0.8942;
122.4000;1.1494;0.8917;
122.7000;1.1486;0.8942;
123.0000;1.1469;0.8917;
123.3000;1.1453;0.8867;
123.6000;1.1494;0.8917;
123.9000;1.1494;0.8867;
124.2000;1.1486;0.8917;
124.5000;1.1494;0.8993;
124.8000;1.1486;0.9068;
125.1000;1.1477;0.9094;
125.4000;1.1437;0.8968;
125.7000;1.1469;0.9043;
126.0000;1.1469;0.9094;
126.3000;1.1486;0.9144;
126.6000;1.1477;0.9119;
126.9000;1.1461;0.9043;
127.2000;1.1461;0.9018;
127.5000;1.1477;0.8993;
127.8000;1.1477;0.8993;
128.1000;1.1486;0.8917;
128.4000;1.1453;0.8842;
128.7000;1.1477;0.8867;
129.0000;1.1461;0.8842;
129.3000;1.1477;0.8867;
129.6000;1.1477;0.8942;
129.9000;1.1469;0.8892;
130.2000;1.1469;0.8892;
130.5000;1.1429;0.8942;
130.8000;1.1494;0.8993;
131.1000;1.1486;0.8993;
131.4000;1.1494;0.8993;
131.7000;1.1477;0.8993;
132.0000;1.1477;0.8917;
132.3000;1.1477;0.8942;
132.6000;1.1486;0.9043;
132.9000;1.1486;0.8993;
133.2000;1.1486;0.9018;
133.5000;1.1461;0.8917;
133.8000;1.1477;0.8968;
134.1000;1.1494;0.9094;
134.4000;1.1469;0.9068;
134.7000;1.1486;0.9169;
135.0000;1.1486;0.9194;
135.3000;1.1469;0.9245;
135.6000;1.1477;0.9295;
135.9000;1.1477;0.9220;
136.2000;1.1477;0.9169;
136.5000;1.1469;0.9220;
136.8000;1.1461;0.9119;
137.1000;1.1477;0.9119;
137.4000;1.1486;0.9018;
137.7000;1.1494;0.9043;
138.0000;1.1486;0.9018;
138.3000;1.1486;0.9018;
138.6000;1.1477;0.9043;
138.9000;1.1486;0.9119;
139.2000;1.1477;0.9018;
139.5000;1.1486;0.8917;
139.8000;1.1477;0.8917;
140.1000;1.1477;0.8942;
140.4000;1.1486;0.9018;
140.7000;1.1469;0.8993;
141.0000;1.1486;0.9018;
141.3000;1.1477;0.9068;
141.6000;1.1477;0.9068;
141.9000;1.1477;0.9068;
142.2000;1.1477;0.9018;
142.5000;1.1494;0.9068;
142.8000;1.1469;0.8942;
143.1000;1.1486;0.8968;
143.4000;1.1502;0.9043;
143.7000;1.1469;0.8968;
144.0000;1.1502;0.9018;
144.3000;1.1502;0.9043;
144.6000;1.1486;0.9018;
144.9000;1.1502;0.9018;
145.2000;1.1469;0.9018;
145.5000;1.1486;0.9043;
145.8000;1.1486;0.9018;
146.1000;1.1469;0.8993;
146.4000;1.1486;0.8917;
146.7000;1.1486;0.8968;
147.0000;1.1477;0.9043;
147.3000;1.1469;0.9094;
147.6000;1.1494;0.9194;
147.9000;1.1486;0.9245;
148.2000;1.1494;0.9270;
148.5000;1.1486;0.9295;
148.8000;1.1494;0.9345;
149.1000;1.1486;0.9320;
149.4000;1.1477;0.9245;
149.7000;1.1420;0.8993;
150.0000;1.1494;0.9169;
150.3000;1.1494;0.9094;
150.6000;1.1502;0.9068;
150.9000;1.1486;0.8942;
151.2000;1.1477;0.8892;
151.5000;1.1486;0.8892;
151.8000;1.1502;0.8968;
152.1000;1.1477;0.8968;
152.4000;1.1477;0.9068;
152.7000;1.1494;0.9144;
153.0000;1.1453;0.9043;
153.3000;1.1494;0.9144;
153.6000;1.1477;0.9119;
153.9000;1.1494;0.9144;
154.2000;1.1494;0.9169;
154.5000;1.1510;0.9144;
154.8000;1.1494;0.9043;
155.1000;1.1486;0.9094;
155.4000;1.1502;0.9119;
155.7000;1.1486;0.9043;
156.0000;1.1486;0.9018;
156.3000;1.1486;0.9068;
156.6000;1.1510;0.9144;
156.9000;1.1486;0.9068;
157.2000;1.1477;0.9043;
157.5000;1.1486;0.9144;
157.8000;1.1486;0.9144;
158.1000;1.1502;0.9119;
158.4000;1.1502;0.9068;
158.7000;1.1477;0.9043;
159.0000;1.1486;0.9043;
159.3000;1.1510;0.9119;
159.6000;1.1494;0.9094;
159.9000;1.1477;0.9094;
160.2000;1.1486;0.9119;
160.5000;1.1429;0.8968;
160.8000;1.1445;0.8942;
161.1000;1.1494;0.9094;
161.4000;1.1477;0.9094;
161.7000;1.1469;0.9169;
162.0000;1.1502;0.9220;
162.3000;1.1494;0.9320;
162.6000;1.1461;0.9270;
162.9000;1.1486;0.9270;
163.2000;1.1477;0.9295;
163.5000;1.1486;0.9320;
163.8000;1.1477;0.9320;
164.1000;1.1494;0.9245;
164.4000;1.1502;0.9270;
164.7000;1.1494;0.9270;
165.0000;1.1559;0.9471;
165.3000;1.1494;0.9295;
165.6000;1.1477;0.9270;
165.9000;1.1486;0.9270;
166.2000;1.1486;0.9194;
166.5000;1.1486;0.9144;
166.8000;1.1469;0.9068;
167.1000;1.1494;0.9144;
167.4000;1.1477;0.9144;
167.7000;1.1469;0.9169;
168.0000;1.1477;0.9144;
168.3000;1.1518;0.9169;
168.6000;1.1494;0.9094;
168.9000;1.1486;0.9043;
169.2000;1.1477;0.9169;
169.5000;1.1453;0.9169;
169.8000;1.1486;0.9245;
170.1000;1.1486;0.9270;
170.4000;1.1502;0.9371;
170.7000;1.1486;0.9320;
171.0000;1.1477;0.9220;
171.3000;1.1477;0.9194;
171.6000;1.1486;0.9169;
171.9000;1.1469;0.9119;
172.2000;1.1469;0.9094;
172.5000;1.1477;0.8968;
172.8000;1.1477;0.8942;
173.1000;1.1477;0.9043;
173.4000;1.1486;0.9043;
173.7000;1.1494;0.9043;
174.0000;1.1453;0.8968;
174.3000;1.1469;0.9018;
174.6000;1.1469;0.9018;
174.9000;1.1469;0.9043;
175.2000;1.1477;0.9068;
175.5000;1.1461;0.9068;
175.8000;1.1486;0.9094;
176.1000;1.1469;0.9094;
176.4000;1.1494;0.9094;
176.7000;1.1469;0.8993;
177.0000;1.1477;0.9094;
177.3000;1.1486;0.9018;
177.6000;1.1486;0.8942;
177.9000;1.1477;0.8892;
178.2000;1.1477;0.8892;
178.5000;1.1518;0.8993;
178.8000;1.1486;0.8968;
179.1000;1.1486;0.9043;
179.4000;1.1486;0.9018;
179.7000;1.1429;0.8892;
180.0000;1.1461;0.9068;
180.3000;1.1469;0.9144;
180.6000;1.1502;0.9245;
180.9000;1.1477;0.9220;
181.2000;1.1486;0.9270;
181.5000;1.1502;0.9169;
181.8000;1.1477;0.9119;
182.1000;1.1486;0.9144;
182.4000;1.1453;0.9119;
182.7000;1.1486;0.9194;
183.0000;1.1486;0.9068;
183.3000;1.1486;0.9094;
183.6000;1.1486;0.9144;
183.9000;1.1461;0.9094;
184.2000;1.1494;0.9068;
184.5000;1.1429;0.8942;
184.8000;1.1502;0.9144;
185.1000;1.1477;0.9144;
185.4000;1.1477;0.9094;
185.7000;1.1477;0.9094;
186.0000;1.1486;0.9119;
186.3000;1.1477;0.9119;
186.6000;1.1502;0.9144;
186.9000;1.1477;0.8993;
187.2000;1.1518;0.9018;
187.5000;1.1477;0.8917;
187.8000;1.1486;0.8942;
188.1000;1.1469;0.8842;
188.4000;1.1486;0.8867;
188.7000;1.1486;0.8917;
189.0000;1.1502;0.9018;
189.3000;1.1477;0.8942;
189.6000;1.1494;0.8942;
189.9000;1.1502;0.9018;
190.2000;1.1486;0.9068;
190.5000;1.1494;0.9018;
190.8000;1.1494;0.9018;
191.1000;1.1486;0.9018;
191.4000;1.1477;0.9018;
191.7000;1.1477;0.9068;
192.0000;1.1469;0.8993;
192.3000;1.1469;0.9068;
192.6000;1.1469;0.9043;
192.9000;1.1518;0.9094;
193.2000;1.1469;0.8993;
193.5000;1.1469;0.8968;
193.8000;1.1486;0.9068;
194.1000;1.1461;0.9018;
194.4000;1.1486;0.8993;
194.7000;1.1486;0.9119;
195.0000;1.1453;0.9043;
195.3000;1.1469;0.9068;
195.6000;1.1469;0.9018;
195.9000;1.1477;0.8942;
196.2000;1.1486;0.8892;
196.5000;1.1486;0.8942;
196.8000;1.1494;0.8917;
197.1000;1.1453;0.8842;
197.4000;1.1486;0.8942;
197.7000;1.1477;0.8968;
198.0000;1.1486;0.9043;
198.3000;1.1469;0.8968;
198.6000;1.1486;0.8942;
198.9000;1.1494;0.9018;
199.2000;1.1477;0.9018;
199.5000;1.1486;0.9068;
199.8000;1.1469;0.8993;
200.1000;1.1469;0.9094;
200.4000;1.1486;0.9144;
200.7000;1.1469;0.9094;
201.0000;1.1461;0.9018;
201.3000;1.1486;0.9144;
201.6000;1.1469;0.9144;
201.9000;1.1469;0.9144;
202.2000;1.1469;0.9119;
202.5000;1.1477;0.9094;
202.8000;1.1477;0.9068;
203.1000;1.1477;0.9043;
203.4000;1.1477;0.8917;
203.7000;1.1396;0.8892;
204.0000;1.1494;0.9094;
204.3000;1.1494;0.9094;
204.6000;1.1494;0.9043;
204.9000;1.1494;0.9068;
205.2000;1.1494;0.9068;
205.5000;1.1502;0.9068;
205.8000;1.1543;0.9068;
206.1000;1.1477;0.9018;
206.4000;1.1453;0.8993;
206.7000;1.1494;0.9094;
207.0000;1.1477;0.9094;
207.3000;1.1477;0.9068;
207.6000;1.1453;0.9068;
207.9000;1.1494;0.9220;
208.2000;1.1477;0.9194;
208.5000;1.1437;0.9144;
208.8000;1.1477;0.9169;
209.1000;1.1486;0.9144;
209.4000;1.1486;0.9144;
209.7000;1.1477;0.9144;
210.0000;1.1469;0.9144;
210.3000;1.1469;0.9043;
210.6000;1.1445;0.8942;
210.9000;1.1486;0.9043;
211.2000;1.1477;0.9068;
211.5000;1.1486;0.9043;
211.8000;1.1453;0.8993;
212.1000;1.1510;0.9068;
212.4000;1.1469;0.9018;
212.7000;1.1461;0.8968;
213.0000;1.1412;0.8867;
213.3000;1.1477;0.9018;
213.6000;1.1477;0.8942;
213.9000;1.1486;0.9018;
214.2000;1.1494;0.9068;
214.5000;1.1494;0.9018;
214.8000;1.1453;0.8968;
215.1000;1.1486;0.8968;
215.4000;1.1486;0.8968;
215.7000;1.1486;0.8993;
216.0000;1.1486;0.9144;
216.3000;1.1486;0.9245;
216.6000;1.1486;0.9194;
216.9000;1.1486;0.9169;
217.2000;1.1469;0.9094;
217.5000;1.1461;0.9043;
217.8000;1.1510;0.9169;
218.1000;1.1477;0.9144;
218.4000;1.1453;0.9220;
218.7000;1.1477;0.9270;
219.0000;1.1477;0.9194;
219.3000;1.1445;0.9119;
219.6000;1.1477;0.9144;
219.9000;1.1477;0.9068;
220.2000;1.1486;0.9043;
220.5000;1.1502;0.9068;
220.8000;1.1494;0.9094;
221.1000;1.1510;0.9169;
221.4000;1.1510;0.9094;
221.7000;1.1534;0.9144;
222.0000;1.1502;0.9144;
222.3000;1.1461;0.9094;
222.6000;1.1477;0.9094;
222.9000;1.1453;0.9043;
223.2000;1.1461;0.9119;
223.5000;1.1469;0.9043;
223.8000;1.1469;0.9068;
224.1000;1.1486;0.9169;
224.4000;1.1486;0.9144;
224.7000;1.1486;0.9119;
225.0000;1.1477;0.9043;
225.3000;1.1486;0.9018;
225.6000;1.1486;0.8993;
225.9000;1.1477;0.8968;
226.2000;1.1486;0.8993;
226.5000;1.1477;0.8917;
226.8000;1.1461;0.8942;
227.1000;1.1477;0.8993;
227.4000;1.1469;0.9043;
227.7000;1.1469;0.9043;
228.0000;1.1477;0.9043;
228.3000;1.1486;0.9094;
228.6000;1.1437;0.8917;
228.9000;1.1477;0.9144;
229.2000;1.1477;0.9220;
229.5000;1.1469;0.9194;
229.8000;1.1486;0.9270;
230.1000;1.1486;0.9220;
230.4000;1.1477;0.9220;
230.7000;1.1486;0.9220;
231.0000;1.1494;0.9245;
231.3000;1.1469;0.9119;
231.6000;1.1486;0.9094;
231.9000;1.1494;0.9119;
232.2000;1.1477;0.9018;
232.5000;1.1461;0.9043;
232.8000;1.1461;0.9043;
233.1000;1.1461;0.9043;
233.4000;1.1453;0.9169;
233.7000;1.1477;0.9245;
234.0000;1.1445;0.9245;
234.3000;1.1453;0.9194;
234.6000;1.1469;0.9194;
234.9000;1.1486;0.9119;
235.2000;1.1469;0.9043;
235.5000;1.1461;0.9094;
235.8000;1.1494;0.9169;
236.1000;1.1510;0.9270;
236.4000;1.1477;0.9270;
236.7000;1.1477;0.9295;
237.0000;1.1437;0.9194;
237.3000;1.1486;0.9295;
237.6000;1.1469;0.9295;
237.9000;1.1461;0.9270;
238.2000;1.1453;0.9144;
238.5000;1.1469;0.9144;
238.8000;1.1477;0.9169;
239.1000;1.1518;0.9245;
239.4000;1.1494;0.9169;
239.7000;1.1477;0.9094;
240.0000;1.1486;0.9094;
240.3000;1.1469;0.9094;
240.6000;1.1502;0.9295;
240.9000;1.1486;0.9245;
241.2000;1.1412;0.9018;
241.5000;1.1502;0.9320;
241.8000;1.1486;0.9320;
242.1000;1.1469;0.9270;
242.4000;1.1453;0.9194;
242.7000;1.1469;0.9144;
243.0000;1.1551;0.9270;
243.3000;1.1453;0.9043;
243.6000;1.1437;0.9094;
243.9000;1.1445;0.9043;
244.2000;1.1477;0.9119;
244.5000;1.1469;0.9068;
244.8000;1.1453;0.8942;
245.1000;1.1502;0.9043;
245.4000;1.1486;0.8993;
245.7000;1.1469;0.9018;
246.0000;1.1486;0.9094;
246.3000;1.1477;0.9119;
246.6000;1.1477;0.9169;
246.9000;1.1477;0.9119;
247.2000;1.1469;0.9094;
247.5000;1.1486;0.9018;
247.8000;1.1486;0.9068;
248.1000;1.1486;0.9094;
248.4000;1.1486;0.9068;
248.7000;1.1477;0.9018;
249.0000;1.1477;0.8993;
249.3000;1.1469;0.9018;
249.6000;1.1477;0.9068;
249.9000;1.1486;0.9094;
250.2000;1.1486;0.9094;
250.5000;1.1502;0.9144;
250.8000;1.1502;0.9144;
251.1000;1.1502;0.9194;
251.4000;1.1477;0.9220;
251.7000;1.1477;0.9295;
252.0000;1.1477;0.9371;
252.3000;1.1420;0.9194;
252.6000;1.1469;0.9220;
252.9000;1.1477;0.9270;
253.2000;1.1486;0.9270;
253.5000;1.1477;0.9270;
253.8000;1.1461;0.9270;
254.1000;1.1477;0.9270;
254.4000;1.1453;0.9245;
254.7000;1.1469;0.9220;
255.0000;1.1486;0.9320;
255.3000;1.1469;0.9220;
255.6000;1.1469;0.9194;
255.9000;1.1437;0.9169;
256.2000;1.1518;0.9345;
256.5000;1.1486;0.9371;
256.8000;1.1469;0.9295;
257.1000;1.1461;0.9345;
257.4000;1.1486;0.9371;
257.7000;1.1486;0.9396;
258.0000;1.1486;0.9446;
258.3000;1.1469;0.9396;
258.6000;1.1502;0.9371;
258.9000;1.1486;0.9396;
259.2000;1.1469;0.9320;
259.5000;1.1461;0.9295;
259.8000;1.1453;0.9245;
260.1000;1.1502;0.9320;
260.4000;1.1494;0.9270;
260.7000;1.1469;0.9245;
261.0000;1.1477;0.9194;
261.3000;1.1486;0.9270;
261.6000;1.1486;0.9169;
261.9000;1.1494;0.9220;
262.2000;1.1486;0.9144;
262.5000;1.1494;0.9270;
262.8000;1.1486;0.9320;
263.1000;1.1486;0.9320;
263.4000;1.1453;0.9220;
263.7000;1.1453;0.9245;
264.0000;1.1486;0.9220;
264.3000;1.1461;0.9194;
264.6000;1.1469;0.9144;
264.9000;1.1453;0.9043;
265.2000;1.1445;0.9094;
265.5000;1.1412;0.8993;
265.8000;1.1486;0.9144;
266.1000;1.1477;0.9094;
266.4000;1.1461;0.9043;
266.7000;1.1461;0.9144;
267.0000;1.1461;0.9068;
267.3000;1.1461;0.9043;
267.6000;1.1469;0.9068;
267.9000;1.1502;0.9220;
268.2000;1.1453;0.9119;
268.5000;1.1469;0.9144;
268.8000;1.1477;0.9169;
269.1000;1.1469;0.9169;
269.4000;1.1477;0.9194;
269.7000;1.1469;0.9220;
270.0000;1.1469;0.9220;
270.3000;1.1486;0.9194;
270.6000;1.1477;0.9144;
270.9000;1.1477;0.9144;
271.2000;1.1469;0.9018;
271.5000;1.1461;0.8942;
271.8000;1.1477;0.9018;
272.1000;1.1469;0.8993;
272.4000;1.1477;0.9094;
272.7000;1.1486;0.9144;
273.0000;1.1486;0.9119;
273.3000;1.1469;0.9094;
273.6000;1.1469;0.9119;
273.9000;1.1461;0.9119;
274.2000;1.1477;0.9194;
274.5000;1.1445;0.9043;
274.8000;1.1486;0.9018;
275.1000;1.1494;0.9068;
275.4000;1.1396;0.8816;
275.7000;1.1502;0.9094;
276.0000;1.1502;0.9043;
276.3000;1.1453;0.9018;
276.6000;1.1494;0.9144;
276.9000;1.1477;0.9119;
277.2000;1.1486;0.9094;
277.5000;1.1469;0.9169;
277.8000;1.1486;0.9270;
278.1000;1.1477;0.9194;
278.4000;1.1445;0.9144;
278.7000;1.1453;0.9018;
279.0000;1.1461;0.9043;
279.3000;1.1494;0.8968;
279.6000;1.1453;0.8917;
279.9000;1.1486;0.8917;
280.2000;1.1477;0.8867;
280.5000;1.1477;0.8892;
280.8000;1.1486;0.8942;
281.1000;1.1486;0.8993;
281.4000;1.1477;0.8942;
281.7000;1.1477;0.8993;
282.0000;1.1477;0.9094;
282.3000;1.1477;0.9094;
282.6000;1.1461;0.9245;
282.9000;1.1502;0.9345;
283.2000;1.1477;0.9345;
283.5000;1.1469;0.9270;
283.8000;1.1461;0.9245;
284.1000;1.1469;0.9345;
284.4000;1.1469;0.9320;
284.7000;1.1461;0.9345;
285.0000;1.1469;0.9345;
285.3000;1.1477;0.9421;
285.6000;1.1486;0.9371;
285.9000;1.1486;0.9345;
286.2000;1.1445;0.9220;
286.5000;1.1469;0.9245;
286.8000;1.1469;0.9169;
287.1000;1.1486;0.9169;
287.4000;1.1469;0.9144;
287.7000;1.1486;0.9169;
288.0000;1.1477;0.9270;
288.3000;1.1469;0.9345;
288.6000;1.1486;0.9345;
288.9000;1.1486;0.9345;
289.2000;1.1469;0.9295;
289.5000;1.1469;0.9220;
289.8000;1.1437;0.9119;
290.1000;1.1461;0.9068;
290.4000;1.1461;0.8993;
290.7000;1.1461;0.8968;
291.0000;1.1502;0.9068;
291.3000;1.1477;0.9018;
291.6000;1.1453;0.8968;
291.9000;1.1477;0.9169;
292.2000;1.1477;0.9220;
292.5000;1.1453;0.9068;
292.8000;1.1453;0.9119;
293.1000;1.1469;0.9094;
293.4000;1.1469;0.9068;
293.7000;1.1461;0.9119;
294.0000;1.1453;0.9270;
294.3000;1.1486;0.9320;
294.6000;1.1494;0.9345;
294.9000;1.1469;0.9169;
295.2000;1.1469;0.9194;
295.5000;1.1453;0.9169;
295.8000;1.1477;0.9245;
296.1000;1.1477;0.9371;
296.4000;1.1469;0.9371;
296.7000;1.1469;0.9371;
297.0000;1.1486;0.9320;
297.3000;1.1461;0.9245;
297.6000;1.1404;0.9068;
297.9000;1.1469;0.9270;
298.2000;1.1486;0.9396;
298.5000;1.1469;0.9396;
298.8000;1.1477;0.9421;
299.1000;1.1453;0.9446;
299.4000;1.1445;0.9446;
299.7000;1.1461;0.9446;
300.0000;1.1469;0.9446;
300.3000;1.1429;0.9320;
300.6000;1.1445;0.9345;
300.9000;1.1469;0.9371;
301.2000;1.1486;0.9421;
301.5000;1.1445;0.9371;
301.8000;1.1502;0.9471;
302.1000;1.1469;0.9421;
302.4000;1.1469;0.9497;
302.7000;1.1461;0.9446;
303.0000;1.1461;0.9421;
303.3000;1.1477;0.9345;
303.6000;1.1477;0.9320;
303.9000;1.1477;0.9295;
304.2000;1.1477;0.9270;
304.5000;1.1477;0.9320;
304.8000;1.1502;0.9345;
305.1000;1.1477;0.9320;
305.4000;1.1469;0.9220;
305.7000;1.1461;0.9245;
306.0000;1.1477;0.9194;
306.3000;1.1469;0.9220;
306.6000;1.1526;0.9245;
306.9000;1.1477;0.9068;
307.2000;1.1469;0.9018;
307.5000;1.1494;0.9119;
307.8000;1.1477;0.9043;
308.1000;1.1486;0.9043;
308.4000;1.1477;0.9094;
308.7000;1.1486;0.9119;
309.0000;1.1461;0.9018;
309.3000;1.1559;0.9320;
309.6000;1.1461;0.9068;
309.9000;1.1477;0.9119;
310.2000;1.1494;0.9068;
310.5000;1.1453;0.9043;
310.8000;1.1461;0.9119;
311.1000;1.1494;0.9194;
311.4000;1.1486;0.9119;
311.7000;1.1404;0.9018;
312.0000;1.1453;0.9194;
312.3000;1.1477;0.9220;
312.6000;1.1477;0.9169;
312.9000;1.1510;0.9169;
313.2000;1.1461;0.9018;
313.5000;1.1477;0.9094;
313.8000;1.1510;0.9169;
314.1000;1.1477;0.9144;
314.4000;1.1469;0.9169;
314.7000;1.1445;0.9094;
315.0000;1.1469;0.9194;
315.3000;1.1486;0.9220;
315.6000;1.1461;0.9119;
315.9000;1.1469;0.9018;
316.2000;1.1477;0.9119;
316.5000;1.1461;0.9018;
316.8000;1.1477;0.9068;
317.1000;1.1469;0.9018;
317.4000;1.1469;0.9043;
317.7000;1.1477;0.9119;
318.0000;1.1486;0.9144;
318.3000;1.1477;0.9245;
318.6000;1.1494;0.9220;
318.9000;1.1469;0.9144;
319.2000;1.1486;0.9144;
319.5000;1.1494;0.9194;
319.8000;1.1486;0.9094;
320.1000;1.1486;0.9144;
320.4000;1.1486;0.9169;
320.7000;1.1461;0.9094;
321.0000;1.1469;0.9144;
321.3000;1.1461;0.8993;
321.6000;1.1469;0.9094;
321.9000;1.1469;0.9094;
322.2000;1.1469;0.9068;
322.5000;1.1502;0.9169;
322.8000;1.1469;0.9018;
323.1000;1.1477;0.9068;
323.4000;1.1453;0.9068;
323.7000;1.1461;0.9270;
324.0000;1.1461;0.9245;
324.3000;1.1461;0.9194;
324.6000;1.1477;0.9295;
324.9000;1.1445;0.9245;
325.2000;1.1469;0.9270;
325.5000;1.1453;0.9194;
325.8000;1.1445;0.9220;
326.1000;1.1477;0.9194;
326.4000;1.1477;0.9169;
326.7000;1.1502;0.9194;
327.0000;1.1469;0.9144;
327.3000;1.1477;0.9220;
327.6000;1.1486;0.9169;
327.9000;1.1477;0.9169;
328.2000;1.1445;0.9144;
328.5000;1.1461;0.9169;
328.8000;1.1453;0.9094;
329.1000;1.1486;0.9119;
329.4000;1.1461;0.9119;
329.7000;1.1477;0.9169;
330.0000;1.1461;0.9119;
330.3000;1.1453;0.9119;
330.6000;1.1445;0.9144;
330.9000;1.1437;0.9220;
331.2000;1.1486;0.9371;
331.5000;1.1453;0.9320;
331.8000;1.1477;0.9345;
332.1000;1.1477;0.9345;
332.4000;1.1453;0.9295;
332.7000;1.1469;0.9320;
333.0000;1.1494;0.9371;
333.3000;1.1477;0.9396;
333.6000;1.1502;0.9421;
333.9000;1.1477;0.9295;
334.2000;1.1445;0.9220;
334.5000;1.1477;0.9245;
334.8000;1.1461;0.9194;
335.1000;1.1461;0.9270;
335.4000;1.1461;0.9245;
335.7000;1.1469;0.9295;
336.0000;1.1461;0.9169;
336.3000;1.1469;0.9169;
336.6000;1.1477;0.9169;
336.9000;1.1486;0.9194;
337.2000;1.1502;0.9245;
337.5000;1.1469;0.9295;
337.8000;1.1429;0.9245;
338.1000;1.1461;0.9270;
338.4000;1.1477;0.9295;
338.7000;1.1453;0.9245;
339.0000;1.1429;0.9220;
339.3000;1.1461;0.9345;
339.6000;1.1453;0.9371;
339.9000;1.1461;0.9345;
340.2000;1.1461;0.9345;
340.5000;1.1461;0.9396;
340.8000;1.1429;0.9194;
341.1000;1.1437;0.9270;
341.4000;1.1461;0.9295;
341.7000;1.1453;0.9371;
342.0000;1.1453;0.9345;
342.3000;1.1453;0.9320;
342.6000;1.1502;0.9446;
342.9000;1.1461;0.9345;
343.2000;1.1486;0.9371;
343.5000;1.1477;0.9421;
343.8000;1.1453;0.9371;
344.1000;1.1469;0.9345;
344.4000;1.1469;0.9295;
344.7000;1.1461;0.9295;
345.0000;1.1469;0.9345;
345.3000;1.1486;0.9497;
345.6000;1.1461;0.9547;
345.9000;1.1469;0.9547;
346.2000;1.1461;0.9547;
346.5000;1.1461;0.9446;
346.8000;1.1469;0.9522;
347.1000;1.1461;0.9497;
347.4000;1.1461;0.9522;
347.7000;1.1477;0.9497;
348.0000;1.1453;0.9371;
348.3000;1.1461;0.9421;
348.6000;1.1461;0.9421;
348.9000;1.1445;0.9371;
349.2000;1.1445;0.9421;
349.5000;1.1477;0.9471;
349.8000;1.1437;0.9421;
350.1000;1.1461;0.9471;
350.4000;1.1445;0.9396;
350.7000;1.1486;0.9497;
351.0000;1.1445;0.9421;
351.3000;1.1461;0.9471;
351.6000;1.1437;0.9446;
351.9000;1.1469;0.9497;
352.2000;1.1469;0.9497;
352.5000;1.1469;0.9471;
352.8000;1.1461;0.9421;
353.1000;1.1461;0.9345;
353.4000;1.1445;0.9371;
353.7000;1.1453;0.9345;
354.0000;1.1469;0.9320;
354.3000;1.1453;0.9371;
354.6000;1.1469;0.9320;
354.9000;1.1461;0.9270;
355.2000;1.1461;0.9194;
355.5000;1.1461;0.9194;
355.8000;1.1453;0.9169;
356.1000;1.1429;0.9144;
356.4000;1.1437;0.9220;
356.7000;1.1445;0.9194;
357.0000;1.1461;0.9270;
357.3000;1.1429;0.9194;
357.6000;1.1453;0.9320;
357.9000;1.1453;0.9320;
358.2000;1.1445;0.9295;
358.5000;1.1486;0.9371;
358.8000;1.1469;0.9295;
359.1000;1.1453;0.9270;
359.4000;1.1453;0.9144;
359.7000;1.1461;0.9119;
360.0000;1.1469;0.9119;
360.3000;1.1477;0.9068;
360.6000;1.1477;0.9043;
360.9000;1.1453;0.8993;
361.2000;1.1461;0.9018;
361.5000;1.1437;0.8968;
361.8000;1.1477;0.9068;
362.1000;1.1486;0.9068;
362.4000;1.1445;0.9094;
362.7000;1.1445;0.9144;
363.0000;1.1445;0.9094;
363.3000;1.1445;0.9119;
363.6000;1.1453;0.9094;
363.9000;1.1445;0.9043;
364.2000;1.1477;0.9043;
364.5000;1.1461;0.9144;
364.8000;1.1461;0.9245;
365.1000;1.1477;0.9295;
365.4000;1.1461;0.9245;
365.7000;1.1477;0.9245;
366.0000;1.1469;0.9220;
366.3000;1.1461;0.9169;
366.6000;1.1486;0.9169;
366.9000;1.1461;0.9144;
367.2000;1.1477;0.9245;
367.5000;1.1502;0.9371;
367.8000;1.1461;0.9270;
368.1000;1.1429;0.9194;
368.4000;1.1494;0.9345;
368.7000;1.1469;0.9320;
369.0000;1.1461;0.9345;
369.3000;1.1461;0.9270;
369.6000;1.1518;0.9320;
369.9000;1.1469;0.9169;
370.2000;1.1477;0.9144;
370.5000;1.1477;0.9119;
370.8000;1.1453;0.9144;
371.1000;1.1469;0.9220;
371.4000;1.1453;0.9094;
371.7000;1.1453;0.8993;
372.0000;1.1453;0.8942;
372.3000;1.1453;0.8892;
372.6000;1.1453;0.8867;
372.9000;1.1453;0.8842;
373.2000;1.1453;0.8917;
373.5000;1.1469;0.8968;
373.8000;1.1453;0.8942;
374.1000;1.1469;0.8968;
374.4000;1.1453;0.8993;
374.7000;1.1477;0.9119;
375.0000;1.1469;0.9169;
375.3000;1.1461;0.9119;
375.6000;1.1445;0.9094;
375.9000;1.1461;0.9043;
376.2000;1.1469;0.9018;
376.5000;1.1477;0.8993;
376.8000;1.1461;0.8942;
377.1000;1.1437;0.8993;
377.4000;1.1461;0.9094;
377.7000;1.1486;0.9169;
378.0000;1.1486;0.9245;
378.3000;1.1461;0.9270;
378.6000;1.1453;0.9320;
378.9000;1.1453;0.9371;
379.2000;1.1461;0.9345;
379.5000;1.1453;0.9295;
379.8000;1.1453;0.9295;
380.1000;1.1461;0.9270;
380.4000;1.1461;0.9220;
380.7000;1.1461;0.9220;
381.0000;1.1453;0.9270;
381.3000;1.1469;0.9270;
381.6000;1.1445;0.9295;
381.9000;1.1453;0.9245;
382.2000;1.1534;0.9396;
382.5000;1.1461;0.9295;
382.8000;1.1461;0.9345;
383.1000;1.1461;0.9396;
383.4000;1.1412;0.9220;
383.7000;1.1453;0.9396;
384.0000;1.1469;0.9522;
384.3000;1.1429;0.9497;
384.6000;1.1461;0.9597;
384.9000;1.1453;0.9547;
385.2000;1.1461;0.9522;
385.5000;1.1461;0.9522;
385.8000;1.1486;0.9547;
386.1000;1.1461;0.9421;
386.4000;1.1461;0.9396;
386.7000;1.1469;0.9371;
387.0000;1.1453;0.9371;
387.3000;1.1461;0.9396;
387.6000;1.1461;0.9396;
387.9000;1.1461;0.9371;
388.2000;1.1461;0.9371;
388.5000;1.1453;0.9295;
388.8000;1.1477;0.9371;
389.1000;1.1477;0.9421;
389.4000;1.1396;0.9194;
389.7000;1.1445;0.9396;
390.0000;1.1469;0.9522;
390.3000;1.1469;0.9522;
390.6000;1.1461;0.9471;
390.9000;1.1486;0.9421;
391.2000;1.1469;0.9345;
391.5000;1.1412;0.9245;
391.8000;1.1461;0.9345;
392.1000;1.1469;0.9446;
392.4000;1.1445;0.9471;
392.7000;1.1461;0.9497;
393.0000;1.1461;0.9446;
393.3000;1.1461;0.9421;
393.6000;1.1469;0.9396;
393.9000;1.1445;0.9320;
394.2000;1.1469;0.9396;
394.5000;1.1477;0.9471;
394.8000;1.1461;0.9522;
395.1000;1.1461;0.9497;
395.4000;1.1469;0.9471;
395.7000;1.1461;0.9396;
396.0000;1.1437;0.9270;
396.3000;1.1437;0.9270;
396.6000;1.1453;0.9270;
396.9000;1.1453;0.9295;
397.2000;1.1453;0.9270;
397.5000;1.1453;0.9194;
397.8000;1.1461;0.9194;
398.1000;1.1461;0.9220;
398.4000;1.1469;0.9295;
398.7000;1.1404;0.9220;
399.0000;1.1453;0.9295;
399.3000;1.1453;0.9270;
399.6000;1.1477;0.9295;
399.9000;1.1445;0.9169;
400.2000;1.1445;0.9295;
400.5000;1.1461;0.9245;
400.8000;1.1437;0.9119;
401.1000;1.1429;0.9043;
401.4000;1.1461;0.9043;
401.7000;1.1445;0.8968;
402.0000;1.1477;0.9018;
402.3000;1.1469;0.8968;
402.6000;1.1469;0.8942;
402.9000;1.1453;0.8942;
403.2000;1.1510;0.8993;
403.5000;1.1445;0.8892;
403.8000;1.1453;0.8892;
404.1000;1.1453;0.8968;
404.4000;1.1461;0.8942;
404.7000;1.1453;0.9018;
405.0000;1.1453;0.9068;
405.3000;1.1469;0.9043;
405.6000;1.1469;0.9018;
405.9000;1.1437;0.9018;
406.2000;1.1445;0.9043;
406.5000;1.1412;0.9018;
406.8000;1.1388;0.8968;
407.1000;1.1437;0.9068;
407.4000;1.1486;0.9144;
407.7000;1.1420;0.8993;
408.0000;1.1429;0.9119;
408.3000;1.1453;0.9119;
408.6000;1.1445;0.9068;
408.9000;1.1453;0.9119;
409.2000;1.1420;0.9144;
409.5000;1.1437;0.9295;
409.8000;1.1461;0.9345;
410.1000;1.1453;0.9446;
410.4000;1.1469;0.9371;
410.7000;1.1453;0.9345;
411.0000;1.1453;0.9245;
411.3000;1.1437;0.9270;
411.6000;1.1445;0.9295;
411.9000;1.1453;0.9194;
412.2000;1.1445;0.9144;
412.5000;1.1461;0.9144;
412.8000;1.1396;0.8917;
413.1000;1.1469;0.9018;
413.4000;1.1494;0.8993;
413.7000;1.1469;0.8968;
414.0000;1.1469;0.9043;
414.3000;1.1453;0.9094;
414.6000;1.1477;0.9144;
414.9000;1.1461;0.9169;
415.2000;1.1453;0.9169;
415.5000;1.1461;0.9295;
415.8000;1.1453;0.9245;
416.1000;1.1453;0.9220;
416.4000;1.1453;0.9194;
416.7000;1.1420;0.9220;
417.0000;1.1453;0.9295;
417.3000;1.1453;0.9220;
417.6000;1.1445;0.9220;
417.9000;1.1437;0.9194;
418.2000;1.1461;0.9220;
418.5000;1.1445;0.9220;
418.8000;1.1437;0.9220;
419.1000;1.1453;0.9194;
419.4000;1.1429;0.9169;
419.7000;1.1461;0.9220;
420.0000;1.1486;0.9270;
420.3000;1.1461;0.9119;
420.6000;1.1453;0.9068;
420.9000;1.1469;0.9018;
421.2000;1.1445;0.9018;
421.5000;1.1469;0.9043;
421.8000;1.1453;0.8968;
422.1000;1.1461;0.9018;
422.4000;1.1461;0.8968;
422.7000;1.1494;0.9144;
423.0000;1.1461;0.9018;
423.3000;1.1469;0.9018;
423.6000;1.1477;0.8993;
423.9000;1.1469;0.9144;
424.2000;1.1469;0.9194;
424.5000;1.1461;0.9194;
424.8000;1.1469;0.9270;
425.1000;1.1469;0.9194;
425.4000;1.1437;0.9119;
425.7000;1.1461;0.9194;
426.0000;1.1461;0.9119;
426.3000;1.1461;0.9119;
426.6000;1.1461;0.9144;
426.9000;1.1461;0.9169;
427.2000;1.1477;0.9245;
427.5000;1.1429;0.9194;
427.8000;1.1453;0.9270;
428.1000;1.1461;0.9220;
428.4000;1.1453;0.9245;
428.7000;1.1445;0.9295;
429.0000;1.1445;0.9220;
429.3000;1.1477;0.9320;
429.6000;1.1412;0.9220;
429.9000;1.1453;0.9345;
430.2000;1.1420;0.9295;
430.5000;1.1453;0.9320;
430.8000;1.1510;0.9421;
431.1000;1.1469;0.9371;
431.4000;1.1469;0.9396;
431.7000;1.1461;0.9345;
432.0000;1.1461;0.9320;
432.3000;1.1429;0.9270;
432.6000;1.1518;0.9522;
432.9000;1.1477;0.9446;
433.2000;1.1453;0.9371;
433.5000;1.1469;0.9295;
433.8000;1.1453;0.9245;
434.1000;1.1453;0.9295;
434.4000;1.1461;0.9270;
434.7000;1.1445;0.9320;
435.0000;1.1437;0.9194;
435.3000;1.1445;0.9144;
435.6000;1.1429;0.9043;
435.9000;1.1453;0.9169;
436.2000;1.1461;0.9169;
436.5000;1.1429;0.9094;
436.8000;1.1445;0.9144;
437.1000;1.1469;0.9169;
437.4000;1.1453;0.9144;
437.7000;1.1429;0.9220;
438.0000;1.1453;0.9245;
438.3000;1.1453;0.9295;
438.6000;1.1437;0.9396;
438.9000;1.1461;0.9446;
439.2000;1.1445;0.9471;
439.5000;1.1445;0.9446;
439.8000;1.1437;0.9446;
440.1000;1.1412;0.9371;
440.4000;1.1445;0.9371;
440.7000;1.1453;0.9320;
441.0000;1.1437;0.9295;
441.3000;1.1453;0.9295;
441.6000;1.1461;0.9345;
441.9000;1.1453;0.9295;
442.2000;1.1437;0.9270;
442.5000;1.1445;0.9270;
442.8000;1.1429;0.9144;
443.1000;1.1445;0.9270;
443.4000;1.1437;0.9220;
443.7000;1.1494;0.9371;
444.0000;1.1461;0.9295;
444.3000;1.1453;0.9220;
444.6000;1.1437;0.9119;
444.9000;1.1453;0.9144;
445.2000;1.1469;0.9220;
445.5000;1.1477;0.9270;
445.8000;1.1453;0.9144;
446.1000;1.1453;0.9068;
446.4000;1.1469;0.9144;
446.7000;1.1461;0.9220;
447.0000;1.1461;0.9245;
447.3000;1.1453;0.9169;
447.6000;1.1461;0.9194;
447.9000;1.1453;0.9144;
448.2000;1.1445;0.9119;
448.5000;1.1445;0.9119;
448.8000;1.1469;0.9169;
449.1000;1.1486;0.9245;
449.4000;1.1461;0.9220;
449.7000;1.1453;0.9194;
450.0000;1.1445;0.9194;
450.3000;1.1453;0.9295;
450.6000;1.1453;0.9320;
450.9000;1.1469;0.9320;
451.2000;1.1445;0.9295;
451.5000;1.1469;0.9320;
451.8000;1.1469;0.9345;
452.1000;1.1445;0.9169;
452.4000;1.1429;0.9144;
452.7000;1.1437;0.9144;
453.0000;1.1453;0.9245;
453.3000;1.1486;0.9345;
453.6000;1.1420;0.9144;
453.9000;1.1412;0.9144;
454.2000;1.1453;0.9245;
454.5000;1.1453;0.9270;
454.8000;1.1461;0.9446;
455.1000;1.1469;0.9446;
455.4000;1.1445;0.9320;
455.7000;1.1461;0.9345;
456.0000;1.1437;0.9220;
456.3000;1.1412;0.9169;
456.6000;1.1404;0.9169;
456.9000;1.1437;0.9295;
457.2000;1.1437;0.9245;
457.5000;1.1477;0.9295;
457.8000;1.1461;0.9345;
458.1000;1.1429;0.9320;
458.4000;1.1461;0.9371;
458.7000;1.1445;0.9345;
459.0000;1.1461;0.9421;
459.3000;1.1453;0.9446;
459.6000;1.1469;0.9471;
459.9000;1.1453;0.9446;
460.2000;1.1461;0.9396;
460.5000;1.1461;0.9270;
460.8000;1.1469;0.9119;
461.1000;1.1445;0.9068;
461.4000;1.1445;0.9068;
461.7000;1.1469;0.9144;
462.0000;1.1453;0.9169;
462.3000;1.1461;0.9119;
462.6000;1.1445;0.9094;
462.9000;1.1453;0.9144;
463.2000;1.1437;0.9094;
463.5000;1.1437;0.9119;
463.8000;1.1437;0.9068;
464.1000;1.1461;0.9094;
464.4000;1.1445;0.9068;
464.7000;1.1469;0.9194;
465.0000;1.1453;0.9119;
465.3000;1.1420;0.9043;
465.6000;1.1461;0.9094;
465.9000;1.1445;0.9119;
466.2000;1.1469;0.9194;
466.5000;1.1453;0.9169;
466.8000;1.1461;0.9119;
467.1000;1.1453;0.9043;
467.4000;1.1437;0.9043;
467.7000;1.1420;0.9043;
468.0000;1.1437;0.9144;
468.3000;1.1429;0.9144;
468.6000;1.1437;0.9119;
468.9000;1.1429;0.9043;
469.2000;1.1429;0.9068;
469.5000;1.1453;0.9094;
469.8000;1.1477;0.9169;
470.1000;1.1420;0.9169;
470.4000;1.1445;0.9169;
470.7000;1.1420;0.9169;
471.0000;1.1437;0.9270;
471.3000;1.1445;0.9245;
471.6000;1.1437;0.9220;
471.9000;1.1445;0.9245;
472.2000;1.1453;0.9194;
472.5000;1.1469;0.9270;
472.8000;1.1453;0.9169;
473.1000;1.1461;0.9119;
473.4000;1.1453;0.9194;
473.7000;1.1445;0.9320;
474.0000;1.1445;0.9295;
474.3000;1.1429;0.9371;
474.6000;1.1437;0.9421;
474.9000;1.1429;0.9421;
475.2000;1.1429;0.9371;
475.5000;1.1437;0.9371;
475.8000;1.1445;0.9345;
476.1000;1.1453;0.9320;
476.4000;1.1445;0.9245;
476.7000;1.1429;0.9295;
477.0000;1.1453;0.9270;
477.3000;1.1453;0.9220;
477.6000;1.1494;0.9345;
477.9000;1.1437;0.9220;
478.2000;1.1445;0.9270;
478.5000;1.1445;0.9295;
478.8000;1.1437;0.9270;
479.1000;1.1429;0.9245;
479.4000;1.1445;0.9220;
479.7000;1.1437;0.9119;
480.0000;1.1437;0.9043;
480.3000;1.1445;0.8993;
480.6000;1.1453;0.9043;
480.9000;1.1445;0.9094;
481.2000;1.1453;0.9119;
481.5000;1.1445;0.9068;
481.8000;1.1445;0.9018;
482.1000;1.1445;0.9068;
482.4000;1.1445;0.9094;
482.7000;1.1445;0.9068;
483.0000;1.1453;0.9169;
483.3000;1.1453;0.9295;
483.6000;1.1461;0.9295;
483.9000;1.1453;0.9220;
484.2000;1.1429;0.9144;
484.5000;1.1445;0.9119;
484.8000;1.1445;0.9144;
485.1000;1.1445;0.9144;
485.4000;1.1469;0.9295;
485.7000;1.1420;0.9169;
486.0000;1.1453;0.9245;
486.3000;1.1461;0.9144;
486.6000;1.1429;0.9068;
486.9000;1.1445;0.9194;
487.2000;1.1453;0.9245;
487.5000;1.1477;0.9270;
487.8000;1.1453;0.9144;
488.1000;1.1453;0.9068;
488.4000;1.1445;0.9119;
488.7000;1.1461;0.9245;
489.0000;1.1461;0.9169;
489.3000;1.1437;0.9119;
489.6000;1.1445;0.9068;
489.9000;1.1453;0.9068;
490.2000;1.1453;0.9068;
490.5000;1.1437;0.9043;
490.8000;1.1461;0.9119;
491.1000;1.1453;0.9144;
491.4000;1.1461;0.9144;
491.7000;1.1445;0.9169;
492.0000;1.1453;0.9144;
492.3000;1.1445;0.9245;
492.6000;1.1469;0.9295;
492.9000;1.1429;0.9220;
493.2000;1.1429;0.9119;
493.5000;1.1445;0.9169;
493.8000;1.1469;0.9270;
494.1000;1.1437;0.9194;
494.4000;1.1429;0.9169;
494.7000;1.1429;0.9169;
495.0000;1.1445;0.9194;
495.3000;1.1437;0.9169;
495.6000;1.1445;0.9119;
495.9000;1.1453;0.9119;
496.2000;1.1453;0.9119;
496.5000;1.1380;0.8917;
496.8000;1.1437;0.9043;
497.1000;1.1420;0.9018;
497.4000;1.1445;0.9119;
497.7000;1.1437;0.9194;
498.0000;1.1445;0.9295;
498.3000;1.1437;0.9345;
498.6000;1.1477;0.9396;
498.9000;1.1388;0.9144;
499.2000;1.1429;0.9220;
499.5000;1.1429;0.9144;
499.8000;1.1445;0.9194;
500.1000;1.1437;0.9245;
500.4000;1.1396;0.9094;
500.7000;1.1437;0.9169;
501.0000;1.1445;0.9194;
501.3000;1.1461;0.9245;
501.6000;1.1453;0.9245;
501.9000;1.1429;0.9169;
502.2000;1.1453;0.9245;
502.5000;1.1437;0.9270;
502.8000;1.1420;0.9169;
503.1000;1.1445;0.9245;
503.4000;1.1420;0.9270;
503.7000;1.1453;0.9371;
504.0000;1.1437;0.9421;
504.3000;1.1445;0.9345;
504.6000;1.1412;0.9320;
504.9000;1.1437;0.9270;
505.2000;1.1445;0.9345;
505.5000;1.1453;0.9270;
505.8000;1.1445;0.9220;
506.1000;1.1437;0.9270;
506.4000;1.1461;0.9270;
506.7000;1.1461;0.9270;
507.0000;1.1445;0.9169;
507.3000;1.1445;0.9043;
507.6000;1.1445;0.9094;
507.9000;1.1445;0.9119;
508.2000;1.1437;0.9119;
508.5000;1.1437;0.9018;
508.8000;1.1445;0.8942;
509.1000;1.1437;0.8917;
509.4000;1.1445;0.9018;
509.7000;1.1437;0.9068;
510.0000;1.1437;0.9068;
510.3000;1.1453;0.9220;
510.6000;1.1461;0.9119;
510.9000;1.1453;0.9119;
511.2000;1.1445;0.9068;
511.5000;1.1453;0.9068;
511.8000;1.1404;0.8993;
512.1000;1.1445;0.9068;
512.4000;1.1429;0.9068;
512.7000;1.1453;0.9119;
513.0000;1.1453;0.9119;
513.3000;1.1477;0.9194;
513.6000;1.1429;0.9068;
513.9000;1.1429;0.9043;
514.2000;1.1453;0.9068;
514.5000;1.1404;0.9094;
514.8000;1.1388;0.9018;
515.1000;1.1445;0.9119;
515.4000;1.1453;0.9119;
515.7000;1.1437;0.9119;
516.0000;1.1429;0.9144;
516.3000;1.1404;0.9043;
516.6000;1.1437;0.9169;
516.9000;1.1445;0.9194;
517.2000;1.1429;0.9169;
517.5000;1.1437;0.9169;
517.8000;1.1461;0.9169;
518.1000;1.1461;0.9144;
518.4000;1.1429;0.9169;
518.7000;1.1412;0.9119;
519.0000;1.1420;0.9169;
519.3000;1.1453;0.9270;
519.6000;1.1445;0.9295;
519.9000;1.1429;0.9245;
520.2000;1.1445;0.9295;
520.5000;1.1437;0.9220;
520.8000;1.1445;0.9094;
521.1000;1.1445;0.9169;
521.4000;1.1502;0.9270;
521.7000;1.1461;0.9094;
522.0000;1.1396;0.8993;
522.3000;1.1420;0.9094;
522.6000;1.1429;0.9094;
522.9000;1.1453;0.9094;
523.2000;1.1526;0.9295;
523.5000;1.1412;0.9018;
523.8000;1.1445;0.9119;
524.1000;1.1437;0.9068;
524.4000;1.1445;0.9119;
524.7000;1.1445;0.9068;
525.0000;1.1453;0.9068;
525.3000;1.1429;0.8993;
525.6000;1.1445;0.9068;
525.9000;1.1445;0.9119;
526.2000;1.1453;0.9144;
526.5000;1.1429;0.9094;
526.8000;1.1453;0.9194;
527.1000;1.1445;0.9169;
527.4000;1.1453;0.9169;
527.7000;1.1445;0.9119;
528.0000;1.1469;0.9220;
528.3000;1.1461;0.9270;
528.6000;1.1437;0.9320;
528.9000;1.1445;0.9345;
529.2000;1.1437;0.9320;
529.5000;1.1469;0.9295;
529.8000;1.1437;0.9245;
530.1000;1.1429;0.9220;
530.4000;1.1429;0.9270;
530.7000;1.1429;0.9194;
531.0000;1.1429;0.9194;
531.3000;1.1420;0.9119;
531.6000;1.1445;0.9119;
531.9000;1.1429;0.9094;
532.2000;1.1453;0.9094;
532.5000;1.1412;0.8892;
532.8000;1.1437;0.8968;
533.1000;1.1453;0.9043;
533.4000;1.1445;0.9119;
533.7000;1.1429;0.9068;
534.0000;1.1420;0.9094;
534.3000;1.1437;0.9119;
534.6000;1.1453;0.9220;
534.9000;1.1437;0.9345;
535.2000;1.1437;0.9446;
535.5000;1.1420;0.9270;
535.8000;1.1437;0.9270;
536.1000;1.1453;0.9345;
536.4000;1.1437;0.9421;
536.7000;1.1429;0.9295;
537.0000;1.1420;0.9245;
537.3000;1.1461;0.9320;
537.6000;1.1429;0.9194;
537.9000;1.1437;0.9194;
538.2000;1.1445;0.9295;
538.5000;1.1429;0.9220;
538.8000;1.1420;0.9169;
539.1000;1.1429;0.9220;
539.4000;1.1420;0.9270;
539.7000;1.1437;0.9270;
540.0000;1.1445;0.9169;
540.3000;1.1437;0.9194;
540.6000;1.1437;0.9169;
540.9000;1.1420;0.9043;
541.2000;1.1396;0.8942;
541.5000;1.1429;0.9043;
541.8000;1.1412;0.8993;
542.1000;1.1396;0.8968;
542.4000;1.1445;0.9169;
542.7000;1.1412;0.9068;
543.0000;1.1429;0.8993;
543.3000;1.1461;0.9094;
543.6000;1.1453;0.9068;
543.9000;1.1445;0.9018;
544.2000;1.1363;0.8816;
544.5000;1.1420;0.9043;
544.8000;1.1420;0.9119;
545.1000;1.1437;0.9270;
545.4000;1.1429;0.9270;
545.7000;1.1420;0.9245;
546.0000;1.1437;0.9245;
546.3000;1.1420;0.9169;
546.6000;1.1469;0.9144;
546.9000;1.1420;0.9043;
547.2000;1.1477;0.9119;
547.5000;1.1445;0.9094;
547.8000;1.1412;0.9068;
548.1000;1.1445;0.9169;
548.4000;1.1445;0.9194;
548.7000;1.1461;0.9270;
549.0000;1.1510;0.9371;
549.3000;1.1412;0.9094;
549.6000;1.1412;0.9220;
549.9000;1.1445;0.9245;
550.2000;1.1437;0.9194;
550.5000;1.1429;0.9144;
550.8000;1.1404;0.9144;
551.1000;1.1437;0.9220;
551.4000;1.1437;0.9094;
551.7000;1.1429;0.9119;
552.0000;1.1429;0.9144;
552.3000;1.1429;0.9169;
552.6000;1.1453;0.9245;
552.9000;1.1437;0.9169;
553.2000;1.1420;0.9043;
553.5000;1.1453;0.9220;
553.8000;1.1445;0.9144;
554.1000;1.1445;0.9245;
554.4000;1.1437;0.9194;
554.7000;1.1453;0.9270;
555.0000;1.1437;0.9094;
555.3000;1.1437;0.9144;
555.6000;1.1437;0.9144;
555.9000;1.1453;0.9220;
556.2000;1.1502;0.9371;
556.5000;1.1445;0.9245;
556.8000;1.1404;0.9119;
557.1000;1.1437;0.9169;
557.4000;1.1445;0.9169;
557.7000;1.1445;0.9220;
558.0000;1.1445;0.9245;
558.3000;1.1453;0.9320;
558.6000;1.1420;0.9270;
558.9000;1.1437;0.9270;
559.2000;1.1429;0.9144;
559.5000;1.1388;0.9018;
559.8000;1.1429;0.9119;
560.1000;1.1420;0.9119;
560.4000;1.1429;0.9169;
560.7000;1.1429;0.9220;
561.0000;1.1429;0.9194;
561.3000;1.1445;0.9169;
561.6000;1.1494;0.9245;
561.9000;1.1420;0.8942;
562.2000;1.1429;0.9018;
562.5000;1.1437;0.9068;
562.8000;1.1502;0.9270;
563.1000;1.1445;0.9119;
563.4000;1.1453;0.9068;
563.7000;1.1437;0.9043;
564.0000;1.1437;0.8942;
564.3000;1.1437;0.9094;
564.6000;1.1445;0.9068;
564.9000;1.1412;0.8968;
565.2000;1.1469;0.9094;
565.5000;1.1437;0.8993;
565.8000;1.1445;0.8942;
566.1000;1.1437;0.8968;
566.4000;1.1429;0.8942;
566.7000;1.1437;0.8942;
567.0000;1.1420;0.8892;
567.3000;1.1404;0.8741;
567.6000;1.1437;0.8892;
567.9000;1.1429;0.8993;
568.2000;1.1412;0.9043;
568.5000;1.1420;0.9144;
568.8000;1.1461;0.9194;
569.1000;1.1429;0.9119;
569.4000;1.1445;0.9094;
569.7000;1.1420;0.8968;
570.0000;1.1429;0.8968;
570.3000;1.1437;0.9018;
570.6000;1.1429;0.9094;
570.9000;1.1445;0.9119;
571.2000;1.1510;0.9371;
571.5000;1.1437;0.9194;
571.8000;1.1420;0.9119;
572.1000;1.1429;0.9119;
572.4000;1.1437;0.9144;
572.7000;1.1445;0.9169;
573.0000;1.1477;0.9169;
573.3000;1.1437;0.9119;
573.6000;1.1437;0.9220;
573.9000;1.1420;0.9194;
574.2000;1.1437;0.9245;
574.5000;1.1429;0.9169;
574.8000;1.1453;0.9169;
575.1000;1.1453;0.9119;
575.4000;1.1453;0.9094;
575.7000;1.1445;0.9043;
576.0000;1.1437;0.8993;
576.3000;1.1429;0.8968;
576.6000;1.1412;0.8892;
576.9000;1.1420;0.8993;
577.2000;1.1420;0.9094;
577.5000;1.1412;0.8993;
577.8000;1.1412;0.9043;
578.1000;1.1429;0.9068;
578.4000;1.1437;0.8942;
578.7000;1.1445;0.8942;
579.0000;1.1461;0.9018;
579.3000;1.1437;0.8993;
579.6000;1.1445;0.8993;
579.9000;1.1453;0.9043;
580.2000;1.1412;0.8968;
580.5000;1.1453;0.8917;
580.8000;1.1437;0.8816;
581.1000;1.1420;0.8842;
581.4000;1.1396;0.8766;
581.7000;1.1429;0.8842;
582.0000;1.1429;0.8791;
582.3000;1.1445;0.8791;
582.6000;1.1437;0.8842;
582.9000;1.1420;0.8741;
583.2000;1.1372;0.8665;
583.5000;1.1437;0.8892;
583.8000;1.1437;0.8942;
584.1000;1.1429;0.8942;
584.4000;1.1453;0.9043;
584.7000;1.1429;0.9144;
585.0000;1.1412;0.9068;
585.3000;1.1429;0.9094;
585.6000;1.1453;0.9094;
585.9000;1.1412;0.8892;
586.2000;1.1429;0.8993;
586.5000;1.1420;0.9018;
586.8000;1.1404;0.8968;
587.1000;1.1396;0.8842;
587.4000;1.1429;0.8791;
587.7000;1.1412;0.8791;
588.0000;1.1429;0.8842;
588.3000;1.1404;0.8791;
588.6000;1.1420;0.8842;
588.9000;1.1412;0.8892;
589.2000;1.1388;0.8842;
589.5000;1.1429;0.8968;
589.8000;1.1477;0.9094;
590.1000;1.1420;0.9043;
590.4000;1.1437;0.9094;
590.7000;1.1429;0.9144;
591.0000;1.1429;0.9194;
591.3000;1.1420;0.9194;
591.6000;1.1437;0.9194;
591.9000;1.1420;0.9220;
592.2000;1.1429;0.9270;
592.5000;1.1412;0.9295;
592.8000;1.1412;0.9270;
593.1000;1.1412;0.9220;
593.4000;1.1404;0.9169;
593.7000;1.1412;0.9169;
594.0000;1.1420;0.9144;
594.3000;1.1437;0.9270;
594.6000;1.1453;0.9220;
594.9000;1.1429;0.9119;
595.2000;1.1388;0.8942;
595.5000;1.1404;0.8892;
595.8000;1.1404;0.8842;
596.1000;1.1412;0.8993;
596.4000;1.1363;0.8867;
596.7000;1.1437;0.9018;
597.0000;1.1412;0.9018;
597.3000;1.1420;0.9094;
597.6000;1.1420;0.9220;
597.9000;1.1396;0.9144;
598.2000;1.1412;0.9119;
598.5000;1.1412;0.9119;
598.8000;1.1420;0.9018;
599.1000;1.1412;0.9043;
599.4000;1.1429;0.9068;
599.7000;1.1404;0.9018;
600.0000;1.1420;0.8993;
600.3000;1.1412;0.8791;
600.6000;1.1429;0.8665;
600.9000;1.1372;0.8514;
601.2000;1.1290;0.8288;
601.5000;1.1193;0.8036;
601.8000;1.1095;0.7884;
602.1000;1.1013;0.7935;
602.4000;1.0932;0.7809;
602.7000;1.0842;0.7708;
603.0000;1.0704;0.7355;
603.3000;1.0655;0.7330;
603.6000;1.0582;0.7179;
603.9000;1.0509;0.7028;
604.2000;1.0444;0.6952;
604.5000;1.0395;0.6902;
604.8000;1.0313;0.6902;
605.1000;1.0256;0.6726;
605.4000;1.0199;0.6625;
605.7000;1.0134;0.6524;
606.0000;1.0069;0.6499;
606.3000;1.0012;0.6449;
606.6000;0.9939;0.6297;
606.9000;0.9898;0.6297;
607.2000;0.9858;0.6272;
607.5000;0.9809;0.6197;
607.8000;0.9752;0.6222;
608.1000;0.9719;0.6197;
608.4000;0.9695;0.6197;
608.7000;0.9638;0.6146;
609.0000;0.9597;0.6121;
609.3000;0.9565;0.6146;
609.6000;0.9540;0.6121;
609.9000;0.9516;0.6046;
610.2000;0.9459;0.6046;
610.5000;0.9418;0.6020;
610.8000;0.9377;0.5995;
611.1000;0.9377;0.6146;
611.4000;0.9320;0.6121;
611.7000;0.9247;0.6020;
612.0000;0.9231;0.6071;
612.3000;0.9190;0.6096;
612.6000;0.9174;0.6172;
612.9000;0.9125;0.6146;
613.2000;0.9092;0.6020;
613.5000;0.9101;0.6071;
613.8000;0.9068;0.5920;
614.1000;0.9027;0.5869;
614.4000;0.8995;0.5920;
614.7000;0.8962;0.5945;
615.0000;0.8938;0.5995;
615.3000;0.8913;0.5894;
615.6000;0.8889;0.5995;
615.9000;0.8873;0.5945;
616.2000;0.8840;0.5945;
616.5000;0.8848;0.5995;
616.8000;0.8791;0.5920;
617.1000;0.8775;0.5970;
617.4000;0.8759;0.5844;
617.7000;0.8742;0.5794;
618.0000;0.8677;0.5668;
618.3000;0.8694;0.5743;
618.6000;0.8661;0.5693;
618.9000;0.8661;0.5743;
619.2000;0.8612;0.5844;
619.5000;0.8661;0.5995;
619.8000;0.8596;0.5844;
620.1000;0.8571;0.5844;
620.4000;0.8466;0.5617;
620.7000;0.8531;0.5894;
621.0000;0.8498;0.5894;
621.3000;0.8490;0.5869;
621.6000;0.8474;0.5819;
621.9000;0.8441;0.5794;
622.2000;0.8449;0.5769;
622.5000;0.8417;0.5769;
622.8000;0.8409;0.5844;
623.1000;0.8400;0.5743;
623.4000;0.8352;0.5668;
623.7000;0.8392;0.5844;
624.0000;0.8352;0.5794;
624.3000;0.8335;0.5769;
624.6000;0.8319;0.5819;
624.9000;0.8303;0.5794;
625.2000;0.8287;0.5617;
625.5000;0.8360;0.5869;
625.8000;0.8262;0.5693;
626.1000;0.8238;0.5794;
626.4000;0.8238;0.5869;
626.7000;0.8213;0.5769;
627.0000;0.8197;0.5769;
627.3000;0.8148;0.5718;
627.6000;0.8164;0.5718;
627.9000;0.8164;0.5743;
628.2000;0.8140;0.5718;
628.5000;0.8140;0.5592;
628.8000;0.8124;0.5542;
629.1000;0.8099;0.5643;
629.4000;0.8124;0.5718;
629.7000;0.8091;0.5643;
630.0000;0.8075;0.5617;
630.3000;0.8075;0.5592;
630.6000;0.8042;0.5643;
630.9000;0.8034;0.5592;
631.2000;0.8034;0.5718;
631.5000;0.8010;0.5769;
631.8000;0.8010;0.5743;
632.1000;0.7969;0.5668;
632.4000;0.7969;0.5517;
632.7000;0.7961;0.5643;
633.0000;0.7928;0.5542;
633.3000;0.7928;0.5617;
633.6000;0.7912;0.5643;
633.9000;0.7912;0.5668;
634.2000;0.7904;0.5693;
634.5000;0.7896;0.5643;
634.8000;0.7888;0.5542;
635.1000;0.7880;0.5466;
635.4000;0.7888;0.5466;
635.7000;0.7863;0.5441;
636.0000;0.7855;0.5491;
636.3000;0.7847;0.5517;
636.6000;0.7806;0.5567;
636.9000;0.7823;0.5668;
637.2000;0.7766;0.5517;
637.5000;0.7790;0.5567;
637.8000;0.7806;0.5718;
638.1000;0.7823;0.5844;
638.4000;0.7782;0.5693;
638.7000;0.7757;0.5718;
639.0000;0.7766;0.5693;
639.3000;0.7757;0.5592;
639.6000;0.7757;0.5567;
639.9000;0.7733;0.5668;
640.2000;0.7700;0.5643;
640.5000;0.7717;0.5668;
640.8000;0.7717;0.5592;
641.1000;0.7733;0.5718;
641.4000;0.7627;0.5416;
641.7000;0.7700;0.5592;
642.0000;0.7676;0.5517;
642.3000;0.7676;0.5441;
642.6000;0.7668;0.5416;
642.9000;0.7652;0.5491;
643.2000;0.7603;0.5315;
643.5000;0.7643;0.5567;
643.8000;0.7627;0.5643;
644.1000;0.7611;0.5643;
644.4000;0.7619;0.5693;
644.7000;0.7586;0.5643;
645.0000;0.7586;0.5542;
645.3000;0.7586;0.5517;
645.6000;0.7586;0.5517;
645.9000;0.7578;0.5517;
646.2000;0.7554;0.5466;
646.5000;0.7570;0.5542;
646.8000;0.7546;0.5466;
647.1000;0.7546;0.5517;
647.4000;0.7538;0.5567;
647.7000;0.7521;0.5542;
648.0000;0.7538;0.5617;
648.3000;0.7521;0.5643;
648.6000;0.7489;0.5567;
648.9000;0.7464;0.5466;
649.2000;0.7530;0.5643;
649.5000;0.7505;0.5617;
649.8000;0.7497;0.5592;
650.1000;0.7473;0.5567;
650.4000;0.7464;0.5693;
650.7000;0.7473;0.5743;
651.0000;0.7464;0.5668;
651.3000;0.7473;0.5718;
651.6000;0.7440;0.5592;
651.9000;0.7440;0.5567;
652.2000;0.7473;0.5643;
652.5000;0.7424;0.5592;
652.8000;0.7424;0.5643;
653.1000;0.7424;0.5693;
653.4000;0.7399;0.5643;
653.7000;0.7399;0.5643;
654.0000;0.7399;0.5668;
654.3000;0.7448;0.5970;
654.6000;0.7391;0.5819;
654.9000;0.7383;0.5794;
655.2000;0.7367;0.5668;
655.5000;0.7407;0.5794;
655.8000;0.7359;0.5743;
656.1000;0.7359;0.5743;
656.4000;0.7375;0.5819;
656.7000;0.7367;0.5819;
657.0000;0.7342;0.5794;
657.3000;0.7359;0.5794;
657.6000;0.7342;0.5769;
657.9000;0.7342;0.5693;
658.2000;0.7326;0.5643;
658.5000;0.7326;0.5668;
658.8000;0.7318;0.5643;
659.1000;0.7318;0.5643;
659.4000;0.7302;0.5693;
659.7000;0.7326;0.5693;
660.0000;0.7310;0.5617;
660.3000;0.7302;0.5592;
660.6000;0.7318;0.5592;
660.9000;0.7293;0.5643;
661.2000;0.7302;0.5693;
661.5000;0.7293;0.5743;
661.8000;0.7261;0.5693;
662.1000;0.7326;0.5869;
662.4000;0.7318;0.5894;
662.7000;0.7261;0.5794;
663.0000;0.7253;0.5769;
663.3000;0.7253;0.5718;
663.6000;0.7253;0.5794;
663.9000;0.7245;0.5844;
664.2000;0.7220;0.5693;
664.5000;0.7236;0.5693;
664.8000;0.7236;0.5643;
665.1000;0.7220;0.5718;
665.4000;0.7220;0.5693;
665.7000;0.7204;0.5743;
666.0000;0.7204;0.5844;
666.3000;0.7196;0.5819;
666.6000;0.7204;0.5794;
666.9000;0.7188;0.5769;
667.2000;0.7212;0.5894;
667.5000;0.7204;0.5794;
667.8000;0.7188;0.5617;
668.1000;0.7196;0.5668;
668.4000;0.7179;0.5718;
668.7000;0.7179;0.5794;
669.0000;0.7171;0.5769;
669.3000;0.7171;0.5819;
669.6000;0.7171;0.5869;
669.9000;0.7163;0.5920;
670.2000;0.7147;0.5743;
670.5000;0.7155;0.5643;
670.8000;0.7131;0.5617;
671.1000;0.7147;0.5517;
671.4000;0.7139;0.5466;
671.7000;0.7131;0.5542;
672.0000;0.7131;0.5592;
672.3000;0.7123;0.5592;
672.6000;0.7114;0.5668;
672.9000;0.7106;0.5693;
673.2000;0.7074;0.5617;
673.5000;0.7090;0.5668;
673.8000;0.7090;0.5718;
674.1000;0.7106;0.5718;
674.4000;0.7074;0.5643;
674.7000;0.7098;0.5718;
675.0000;0.7106;0.5718;
675.3000;0.7106;0.5643;
675.6000;0.7082;0.5617;
675.9000;0.7082;0.5592;
676.2000;0.7090;0.5643;
676.5000;0.7106;0.5718;
676.8000;0.7066;0.5617;
677.1000;0.7066;0.5668;
677.4000;0.7090;0.5668;
677.7000;0.7066;0.5819;
678.0000;0.7066;0.5743;
678.3000;0.7000;0.5491;
678.6000;0.7049;0.5693;
678.9000;0.7049;0.5718;
679.2000;0.7041;0.5794;
679.5000;0.7098;0.5894;
679.8000;0.7041;0.5718;
680.1000;0.7049;0.5718;
680.4000;0.7025;0.5643;
680.7000;0.7049;0.5743;
681.0000;0.7033;0.5769;
681.3000;0.7025;0.5693;
681.6000;0.7017;0.5743;
681.9000;0.7009;0.5693;
682.2000;0.7041;0.5769;
682.5000;0.7009;0.5668;
682.8000;0.7000;0.5643;
683.1000;0.7017;0.5693;
683.4000;0.6984;0.5643;
683.7000;0.6992;0.5643;
684.0000;0.6992;0.5643;
684.3000;0.6984;0.5567;
684.6000;0.6984;0.5617;
684.9000;0.7000;0.5643;
685.2000;0.6984;0.5592;
685.5000;0.6976;0.5466;
685.8000;0.6952;0.5441;
686.1000;0.6960;0.5592;
686.4000;0.6960;0.5693;
686.7000;0.6960;0.5743;
687.0000;0.6960;0.5769;
687.3000;0.6943;0.5819;
687.6000;0.6886;0.5491;
687.9000;0.6952;0.5491;
688.2000;0.6952;0.5466;
688.5000;0.6911;0.5416;
688.8000;0.6960;0.5567;
689.1000;0.6935;0.5617;
689.4000;0.6935;0.5643;
689.7000;0.6935;0.5592;
690.0000;0.6911;0.5592;
690.3000;0.6952;0.5668;
690.6000;0.6935;0.5643;
690.9000;0.6935;0.5643;
691.2000;0.6943;0.5617;
691.5000;0.6935;0.5617;
691.8000;0.6927;0.5668;
692.1000;0.6911;0.5643;
692.4000;0.6919;0.5693;
692.7000;0.6886;0.5617;
693.0000;0.6911;0.5668;
693.3000;0.6903;0.5668;
693.6000;0.6878;0.5668;
693.9000;0.6903;0.5617;
694.2000;0.6903;0.5567;
694.5000;0.6895;0.5567;
694.8000;0.6895;0.5542;
695.1000;0.6903;0.5491;
695.4000;0.6911;0.5491;
695.7000;0.6886;0.5391;
696.0000;0.6886;0.5365;
696.3000;0.6886;0.5441;
696.6000;0.6878;0.5592;
696.9000;0.6878;0.5441;
697.2000;0.6968;0.5643;
697.5000;0.6878;0.5517;
697.8000;0.6895;0.5617;
698.1000;0.6878;0.5592;
698.4000;0.6862;0.5542;
698.7000;0.6846;0.5517;
699.0000;0.6862;0.5592;
699.3000;0.6870;0.5567;
699.6000;0.6870;0.5617;
699.9000;0.6862;0.5517;
700.2000;0.6862;0.5643;
700.5000;0.6846;0.5668;
700.8000;0.6838;0.5567;
701.1000;0.6854;0.5517;
701.4000;0.6854;0.5567;
701.7000;0.6813;0.5617;
702.0000;0.6846;0.5617;
702.3000;0.6846;0.5617;
702.6000;0.6821;0.5592;
702.9000;0.6846;0.5693;
703.2000;0.6870;0.5693;
703.5000;0.6854;0.5718;
703.8000;0.6838;0.5617;
704.1000;0.6813;0.5643;
704.4000;0.6821;0.5668;
704.7000;0.6797;0.5617;
705.0000;0.6797;0.5617;
705.3000;0.6805;0.5542;
705.6000;0.6829;0.5567;
705.9000;0.6764;0.5491;
706.2000;0.6813;0.5617;
706.5000;0.6821;0.5668;
706.8000;0.6813;0.5743;
707.1000;0.6805;0.5668;
707.4000;0.6764;0.5517;
707.7000;0.6789;0.5643;
708.0000;0.6797;0.5592;
708.3000;0.6805;0.5592;
708.6000;0.6772;0.5542;
708.9000;0.6789;0.5617;
709.2000;0.6870;0.5844;
709.5000;0.6862;0.5794;
709.8000;0.6772;0.5491;
710.1000;0.6789;0.5466;
710.4000;0.6781;0.5517;
710.7000;0.6781;0.5567;
711.0000;0.6781;0.5617;
711.3000;0.6772;0.5592;
711.6000;0.6764;0.5668;
711.9000;0.6756;0.5743;
712.2000;0.6781;0.5743;
712.5000;0.6764;0.5769;
712.8000;0.6764;0.5668;
713.1000;0.6764;0.5668;
713.4000;0.6781;0.5617;
713.7000;0.6748;0.5643;
714.0000;0.6740;0.5668;
714.3000;0.6748;0.5617;
714.6000;0.6740;0.5567;
714.9000;0.6764;0.5592;
715.2000;0.6764;0.5592;
715.5000;0.6772;0.5617;
715.8000;0.6740;0.5617;
716.1000;0.6748;0.5693;
716.4000;0.6732;0.5592;
716.7000;0.6740;0.5617;
717.0000;0.6748;0.5592;
717.3000;0.6756;0.5567;
717.6000;0.6748;0.5643;
717.9000;0.6732;0.5668;
718.2000;0.6748;0.5643;
718.5000;0.6675;0.5391;
718.8000;0.6732;0.5491;
719.1000;0.6732;0.5517;
719.4000;0.6732;0.5491;
719.7000;0.6724;0.5517;
720.0000;0.6748;0.5643;
720.3000;0.6724;0.5693;
720.6000;0.6724;0.5592;
720.9000;0.6732;0.5668;
721.2000;0.6724;0.5668;
721.5000;0.6699;0.5592;
721.8000;0.6707;0.5718;
722.1000;0.6732;0.5693;
722.4000;0.6699;0.5668;
722.7000;0.6716;0.5718;
723.0000;0.6707;0.5668;
723.3000;0.6732;0.5693;
723.6000;0.6716;0.5668;
723.9000;0.6716;0.5643;
724.2000;0.6699;0.5517;
724.5000;0.6707;0.5517;
724.8000;0.6716;0.5491;
725.1000;0.6707;0.5491;
725.4000;0.6699;0.5466;
725.7000;0.6707;0.5491;
726.0000;0.6716;0.5441;
726.3000;0.6675;0.5391;
726.6000;0.6707;0.5491;
726.9000;0.6707;0.5491;
727.2000;0.6716;0.5617;
727.5000;0.6683;0.5592;
727.8000;0.6667;0.5567;
728.1000;0.6667;0.5643;
728.4000;0.6659;0.5567;
728.7000;0.6642;0.5491;
729.0000;0.6667;0.5592;
729.3000;0.6659;0.5592;
729.6000;0.6675;0.5617;
729.9000;0.6667;0.5643;
730.2000;0.6675;0.5668;
730.5000;0.6659;0.5542;
730.8000;0.6675;0.5542;
731.1000;0.6642;0.5466;
731.4000;0.6724;0.5819;
731.7000;0.6675;0.5769;
732.0000;0.6675;0.5894;
732.3000;0.6683;0.5844;
732.6000;0.6650;0.5819;
732.9000;0.6650;0.5869;
733.2000;0.6667;0.5970;
733.5000;0.6659;0.5945;
733.8000;0.6642;0.5894;
734.1000;0.6650;0.5844;
734.4000;0.6691;0.5894;
734.7000;0.6650;0.5743;
735.0000;0.6659;0.5794;
735.3000;0.6650;0.5819;
735.6000;0.6650;0.5743;
735.9000;0.6634;0.5743;
736.2000;0.6650;0.5769;
736.5000;0.6707;0.5945;
736.8000;0.6642;0.5769;
737.1000;0.6642;0.5819;
737.4000;0.6667;0.5894;
737.7000;0.6716;0.5995;
738.0000;0.6650;0.5844;
738.3000;0.6650;0.5869;
738.6000;0.6659;0.5794;
738.9000;0.6642;0.5769;
739.2000;0.6650;0.5794;
739.5000;0.6626;0.5743;
739.8000;0.6634;0.5693;
740.1000;0.6626;0.5617;
740.4000;0.6626;0.5617;
740.7000;0.6618;0.5592;
741.0000;0.6626;0.5668;
741.3000;0.6650;0.5769;
741.6000;0.6634;0.5718;
741.9000;0.6618;0.5819;
742.2000;0.6618;0.5869;
742.5000;0.6626;0.5920;
742.8000;0.6650;0.6020;
743.1000;0.6667;0.6046;
743.4000;0.6626;0.5844;
743.7000;0.6626;0.5769;
744.0000;0.6626;0.5794;
744.3000;0.6593;0.5743;
744.6000;0.6593;0.5769;
744.9000;0.6610;0.5718;
745.2000;0.6618;0.5819;
745.5000;0.6610;0.5819;
745.8000;0.6602;0.5718;
746.1000;0.6593;0.5718;
746.4000;0.6602;0.5819;
746.7000;0.6585;0.5769;
747.0000;0.6593;0.5693;
747.3000;0.6593;0.5769;
747.6000;0.6610;0.5794;
747.9000;0.6602;0.5794;
748.2000;0.6634;0.5794;
748.5000;0.6593;0.5718;
748.8000;0.6610;0.5794;
749.1000;0.6593;0.5743;
749.4000;0.6585;0.5819;
749.7000;0.6536;0.5743;
750.0000;0.6593;0.5945;
750.3000;0.6602;0.5945;
750.6000;0.6577;0.5819;
750.9000;0.6593;0.5844;
751.2000;0.6585;0.5769;
751.5000;0.6602;0.5743;
751.8000;0.6585;0.5743;
752.1000;0.6577;0.5769;
752.4000;0.6602;0.5743;
752.7000;0.6545;0.5592;
753.0000;0.6602;0.5743;
753.3000;0.6569;0.5718;
753.6000;0.6577;0.5743;
753.9000;0.6593;0.5819;
754.2000;0.6569;0.5718;
754.5000;0.6585;0.5693;
754.8000;0.6561;0.5643;
755.1000;0.6569;0.5668;
755.4000;0.6512;0.5567;
755.7000;0.6569;0.5718;
756.0000;0.6569;0.5743;
756.3000;0.6577;0.5743;
756.6000;0.6561;0.5769;
756.9000;0.6569;0.5794;
757.2000;0.6610;0.5970;
757.5000;0.6618;0.6046;
757.8000;0.6577;0.5869;
758.1000;0.6553;0.5769;
758.4000;0.6545;0.5769;
758.7000;0.6553;0.5743;
759.0000;0.6553;0.5718;
759.3000;0.6528;0.5617;
759.6000;0.6553;0.5743;
759.9000;0.6536;0.5769;
760.2000;0.6545;0.5769;
760.5000;0.6512;0.5693;
760.8000;0.6536;0.5819;
761.1000;0.6545;0.5844;
761.4000;0.6577;0.5945;
761.7000;0.6553;0.5920;
762.0000;0.6545;0.5920;
762.3000;0.6561;0.5844;
762.6000;0.6561;0.5844;
762.9000;0.6553;0.5769;
763.2000;0.6553;0.5718;
763.5000;0.6553;0.5693;
763.8000;0.6553;0.5592;
764.1000;0.6545;0.5668;
764.4000;0.6569;0.5769;
764.7000;0.6528;0.5693;
765.0000;0.6553;0.5743;
765.3000;0.6536;0.5718;
765.6000;0.6528;0.5794;
765.9000;0.6536;0.5743;
766.2000;0.6536;0.5743;
766.5000;0.6536;0.5743;
766.8000;0.6569;0.5718;
767.1000;0.6536;0.5592;
767.4000;0.6536;0.5643;
767.7000;0.6528;0.5693;
768.0000;0.6536;0.5769;
768.3000;0.6545;0.5869;
768.6000;0.6447;0.5643;
768.9000;0.6536;0.5819;
769.2000;0.6545;0.5794;
769.5000;0.6536;0.5794;
769.8000;0.6520;0.5693;
770.1000;0.6528;0.5693;
770.4000;0.6504;0.5693;
770.7000;0.6496;0.5693;
771.0000;0.6528;0.5844;
771.3000;0.6536;0.5844;
771.6000;0.6496;0.5743;
771.9000;0.6504;0.5844;
772.2000;0.6496;0.5743;
772.5000;0.6496;0.5869;
772.8000;0.6512;0.5819;
773.1000;0.6528;0.5869;
773.4000;0.6504;0.5794;
773.7000;0.6504;0.5718;
774.0000;0.6504;0.5693;
774.3000;0.6504;0.5769;
774.6000;0.6512;0.5718;
774.9000;0.6504;0.5718;
775.2000;0.6496;0.5643;
775.5000;0.6512;0.5794;
775.8000;0.6479;0.5769;
776.1000;0.6512;0.5894;
776.4000;0.6569;0.5970;
776.7000;0.6512;0.5894;
777.0000;0.6520;0.5920;
777.3000;0.6504;0.5920;
777.6000;0.6577;0.6046;
777.9000;0.6471;0.5819;
778.2000;0.6471;0.5869;
778.5000;0.6512;0.5945;
778.8000;0.6504;0.5844;
779.1000;0.6520;0.5920;
779.4000;0.6479;0.5869;
779.7000;0.6512;0.5920;
780.0000;0.6488;0.5945;
780.3000;0.6471;0.5869;
780.6000;0.6496;0.5945;
780.9000;0.6479;0.5894;
781.2000;0.6496;0.5894;
781.5000;0.6455;0.5794;
781.8000;0.6439;0.5718;
782.1000;0.6496;0.5894;
782.4000;0.6536;0.5970;
782.7000;0.6479;0.5894;
783.0000;0.6471;0.5819;
783.3000;0.6488;0.5819;
783.6000;0.6496;0.5819;
783.9000;0.6488;0.5844;
784.2000;0.6496;0.5819;
784.5000;0.6488;0.5844;
784.8000;0.6504;0.5869;
785.1000;0.6471;0.5844;
785.4000;0.6479;0.5869;
785.7000;0.6439;0.5844;
786.0000;0.6496;0.6020;
786.3000;0.6471;0.5995;
786.6000;0.6488;0.6020;
786.9000;0.6488;0.6020;
787.2000;0.6455;0.5894;
787.5000;0.6471;0.5945;
787.8000;0.6463;0.5894;
788.1000;0.6479;0.5894;
788.4000;0.6496;0.5894;
788.7000;0.6479;0.5869;
789.0000;0.6406;0.5743;
789.3000;0.6471;0.5945;
789.6000;0.6479;0.5945;
789.9000;0.6479;0.5970;
790.2000;0.6431;0.5819;
790.5000;0.6479;0.5894;
790.8000;0.6463;0.5894;
791.1000;0.6463;0.5844;
791.4000;0.6463;0.5945;
791.7000;0.6471;0.5894;
792.0000;0.6471;0.5869;
792.3000;0.6471;0.5819;
792.6000;0.6439;0.5743;
792.9000;0.6455;0.5743;
793.2000;0.6471;0.5769;
793.5000;0.6463;0.5743;
793.8000;0.6455;0.5693;
794.1000;0.6463;0.5869;
794.4000;0.6422;0.5668;
794.7000;0.6479;0.5844;
795.0000;0.6471;0.5894;
795.3000;0.6463;0.5894;
795.6000;0.6422;0.5743;
795.9000;0.6471;0.5844;
796.2000;0.6463;0.5819;
796.5000;0.6447;0.5819;
796.8000;0.6463;0.5794;
797.1000;0.6447;0.5769;
797.4000;0.6463;0.5869;
797.7000;0.6455;0.5869;
798.0000;0.6455;0.5894;
798.3000;0.6447;0.5869;
798.6000;0.6455;0.5869;
798.9000;0.6447;0.5844;
799.2000;0.6455;0.5894;
799.5000;0.6455;0.5819;
799.8000;0.6463;0.5844;
800.1000;0.6479;0.5894;
800.4000;0.6463;0.5869;
800.7000;0.6447;0.5869;
801.0000;0.6398;0.5769;
801.3000;0.6447;0.5869;
801.6000;0.6431;0.5769;
801.9000;0.6422;0.5668;
802.2000;0.6406;0.5643;
802.5000;0.6455;0.5743;
802.8000;0.6447;0.5718;
803.1000;0.6447;0.5718;
803.4000;0.6439;0.5819;
803.7000;0.6447;0.5794;
804.0000;0.6463;0.5743;
804.3000;0.6447;0.5617;
804.6000;0.6447;0.5668;
804.9000;0.6447;0.5743;
805.2000;0.6455;0.5693;
805.5000;0.6431;0.5668;
805.8000;0.6455;0.5693;
806.1000;0.6439;0.5693;
806.4000;0.6439;0.5743;
806.7000;0.6414;0.5693;
807.0000;0.6422;0.5542;
807.3000;0.6431;0.5542;
807.6000;0.6439;0.5643;
807.9000;0.6431;0.5668;
808.2000;0.6431;0.5693;
808.5000;0.6422;0.5693;
808.8000;0.6439;0.5718;
809.1000;0.6439;0.5769;
809.4000;0.6439;0.5769;
809.7000;0.6471;0.5894;
810.0000;0.6479;0.5970;
810.3000;0.6431;0.5794;
810.6000;0.6422;0.5718;
810.9000;0.6406;0.5769;
811.2000;0.6374;0.5819;
811.5000;0.6365;0.5794;
811.8000;0.6406;0.5894;
812.1000;0.6414;0.5945;
812.4000;0.6422;0.5920;
812.7000;0.6447;0.5894;
813.0000;0.6439;0.5844;
813.3000;0.6414;0.5869;
813.6000;0.6431;0.5844;
813.9000;0.6431;0.5894;
814.2000;0.6439;0.5869;
814.5000;0.6447;0.5920;
814.8000;0.6422;0.5920;
815.1000;0.6390;0.5844;
815.4000;0.6439;0.6020;
815.7000;0.6422;0.5970;
816.0000;0.6439;0.5945;
816.3000;0.6398;0.5819;
816.6000;0.6455;0.5920;
816.9000;0.6406;0.5844;
817.2000;0.6422;0.5894;
817.5000;0.6390;0.5844;
817.8000;0.6422;0.5844;
818.1000;0.6431;0.5869;
818.4000;0.6422;0.5970;
818.7000;0.6414;0.5945;
819.0000;0.6431;0.5970;
819.3000;0.6455;0.5995;
819.6000;0.6406;0.5920;
819.9000;0.6406;0.5945;
820.2000;0.6422;0.5920;
820.5000;0.6414;0.5869;
820.8000;0.6439;0.5945;
821.1000;0.6406;0.5844;
821.4000;0.6414;0.5844;
821.7000;0.6406;0.5718;
822.0000;0.6422;0.5643;
822.3000;0.6406;0.5542;
822.6000;0.6398;0.5542;
822.9000;0.6374;0.5491;
823.2000;0.6390;0.5567;
823.5000;0.6398;0.5643;
823.8000;0.6406;0.5794;
824.1000;0.6406;0.5794;
824.4000;0.6455;0.5970;
824.7000;0.6406;0.5794;
825.0000;0.6374;0.5794;
825.3000;0.6406;0.5794;
825.6000;0.6414;0.5894;
825.9000;0.6398;0.5844;
826.2000;0.6382;0.5920;
826.5000;0.6390;0.5894;
826.8000;0.6439;0.6020;
827.1000;0.6406;0.5995;
827.4000;0.6406;0.5970;
827.7000;0.6390;0.5920;
828.0000;0.6398;0.5920;
828.3000;0.6382;0.5869;
828.6000;0.6406;0.5970;
828.9000;0.6398;0.5894;
829.2000;0.6390;0.5894;
829.5000;0.6390;0.5945;
829.8000;0.6398;0.5970;
830.1000;0.6406;0.5945;
830.4000;0.6414;0.5844;
830.7000;0.6398;0.5844;
831.0000;0.6406;0.5819;
831.3000;0.6398;0.5794;
831.6000;0.6365;0.5668;
831.9000;0.6390;0.5743;
832.2000;0.6398;0.5718;
832.5000;0.6390;0.5668;
832.8000;0.6414;0.5718;
833.1000;0.6406;0.5743;
833.4000;0.6406;0.5794;
833.7000;0.6398;0.5819;
834.0000;0.6431;0.5844;
834.3000;0.6406;0.5819;
834.6000;0.6398;0.5844;
834.9000;0.6398;0.5819;
835.2000;0.6374;0.5769;
835.5000;0.6374;0.5743;
835.8000;0.6374;0.5794;
836.1000;0.6357;0.5743;
836.4000;0.6374;0.5794;
836.7000;0.6382;0.5844;
837.0000;0.6422;0.6046;
837.3000;0.6382;0.5894;
837.6000;0.6365;0.5819;
837.9000;0.6382;0.5819;
838.2000;0.6382;0.5894;
838.5000;0.6390;0.5844;
838.8000;0.6390;0.5819;
839.1000;0.6382;0.5894;
839.4000;0.6398;0.5995;
839.7000;0.6398;0.6121;
840.0000;0.6439;0.6222;
840.3000;0.6374;0.6046;
840.6000;0.6374;0.6020;
840.9000;0.6406;0.6071;
841.2000;0.6374;0.5995;
841.5000;0.6341;0.5894;
841.8000;0.6365;0.5894;
842.1000;0.6390;0.5945;
842.4000;0.6390;0.5920;
842.7000;0.6374;0.5869;
843.0000;0.6374;0.5869;
843.3000;0.6382;0.5869;
843.6000;0.6390;0.5844;
843.9000;0.6374;0.5794;
844.2000;0.6333;0.5643;
844.5000;0.6365;0.5743;
844.8000;0.6422;0.5794;
845.1000;0.6390;0.5769;
845.4000;0.6365;0.5794;
845.7000;0.6333;0.5668;
846.0000;0.6365;0.5794;
846.3000;0.6333;0.5743;
846.6000;0.6357;0.5869;
846.9000;0.6390;0.5869;
847.2000;0.6365;0.5869;
847.5000;0.6365;0.5869;
847.8000;0.6325;0.5794;
848.1000;0.6357;0.5794;
848.4000;0.6365;0.5819;
848.7000;0.6439;0.6020;
849.0000;0.6341;0.5769;
849.3000;0.6357;0.5769;
849.6000;0.6374;0.5794;
849.9000;0.6365;0.5769;
850.2000;0.6365;0.5869;
850.5000;0.6374;0.5844;
850.8000;0.6341;0.5743;
851.1000;0.6365;0.5894;
851.4000;0.6374;0.5970;
851.7000;0.6349;0.5869;
852.0000;0.6357;0.5844;
852.3000;0.6374;0.5819;
852.6000;0.6341;0.5844;
852.9000;0.6357;0.5844;
853.2000;0.6357;0.5844;
853.5000;0.6365;0.5920;
853.8000;0.6365;0.5945;
854.1000;0.6357;0.5894;
854.4000;0.6365;0.5869;
854.7000;0.6365;0.5894;
855.0000;0.6357;0.5819;
855.3000;0.6357;0.5894;
855.6000;0.6390;0.5920;
855.9000;0.6357;0.5794;
856.2000;0.6365;0.5844;
856.5000;0.6349;0.5844;
856.8000;0.6357;0.5794;
857.1000;0.6365;0.5819;
857.4000;0.6357;0.5743;
857.7000;0.6349;0.5668;
858.0000;0.6357;0.5794;
858.3000;0.6333;0.5693;
858.6000;0.6357;0.5794;
858.9000;0.6349;0.5819;
859.2000;0.6341;0.5794;
859.5000;0.6374;0.5819;
859.8000;0.6309;0.5592;
860.1000;0.6357;0.5693;
860.4000;0.6333;0.5693;
860.7000;0.6341;0.5668;
861.0000;0.6349;0.5693;
861.3000;0.6374;0.5794;
861.6000;0.6341;0.5693;
861.9000;0.6349;0.5769;
862.2000;0.6333;0.5743;
862.5000;0.6349;0.5693;
862.8000;0.6341;0.5693;
863.1000;0.6349;0.5643;
863.4000;0.6349;0.5668;
863.7000;0.6357;0.5718;
864.0000;0.6349;0.5769;
864.3000;0.6341;0.5769;
864.6000;0.6365;0.5794;
864.9000;0.6365;0.5743;
865.2000;0.6349;0.5743;
865.5000;0.6317;0.5693;
865.8000;0.6349;0.5668;
866.1000;0.6365;0.5693;
866.4000;0.6357;0.5668;
866.7000;0.6333;0.5693;
867.0000;0.6349;0.5718;
867.3000;0.6325;0.5592;
867.6000;0.6349;0.5718;
867.9000;0.6341;0.5668;
868.2000;0.6349;0.5718;
868.5000;0.6284;0.5592;
868.8000;0.6357;0.5743;
869.1000;0.6349;0.5743;
869.4000;0.6341;0.5718;
869.7000;0.6357;0.5869;
870.0000;0.6333;0.5844;
870.3000;0.6382;0.5844;
870.6000;0.6357;0.5769;
870.9000;0.6349;0.5769;
871.2000;0.6341;0.5743;
871.5000;0.6357;0.5819;
871.8000;0.6333;0.5794;
872.1000;0.6341;0.5819;
872.4000;0.6333;0.5869;
872.7000;0.6333;0.5869;
873.0000;0.6341;0.5869;
873.3000;0.6325;0.5844;
873.6000;0.6268;0.5592;
873.9000;0.6317;0.5769;
874.2000;0.6333;0.5769;
874.5000;0.6317;0.5743;
874.8000;0.6309;0.5718;
875.1000;0.6333;0.5769;
875.4000;0.6341;0.5819;
875.7000;0.6333;0.5844;
876.0000;0.6325;0.5794;
876.3000;0.6341;0.5794;
876.6000;0.6333;0.5794;
876.9000;0.6333;0.5844;
877.2000;0.6341;0.5769;
877.5000;0.6341;0.5718;
877.8000;0.6333;0.5718;
878.1000;0.6325;0.5643;
878.4000;0.6333;0.5542;
878.7000;0.6300;0.5416;
879.0000;0.6333;0.5416;
879.3000;0.6341;0.5391;
879.6000;0.6333;0.5340;
879.9000;0.6317;0.5340;
880.2000;0.6341;0.5466;
880.5000;0.6317;0.5441;
880.8000;0.6317;0.5466;
881.1000;0.6268;0.5315;
881.4000;0.6333;0.5542;
881.7000;0.6374;0.5592;
882.0000;0.6325;0.5517;
882.3000;0.6341;0.5517;
882.6000;0.6317;0.5567;
882.9000;0.6300;0.5466;
883.2000;0.6357;0.5592;
883.5000;0.6309;0.5491;
883.8000;0.6333;0.5542;
884.1000;0.6325;0.5542;
884.4000;0.6317;0.5668;
884.7000;0.6333;0.5769;
885.0000;0.6333;0.5769;
885.3000;0.6276;0.5693;
885.6000;0.6349;0.5844;
885.9000;0.6309;0.5668;
886.2000;0.6349;0.5743;
886.5000;0.6325;0.5542;
886.8000;0.6333;0.5517;
887.1000;0.6325;0.5517;
887.4000;0.6357;0.5769;
887.7000;0.6325;0.5743;
888.0000;0.6325;0.5693;
888.3000;0.6317;0.5617;
888.6000;0.6309;0.5592;
888.9000;0.6317;0.5592;
889.2000;0.6309;0.5693;
889.5000;0.6309;0.5643;
889.8000;0.6325;0.5643;
890.1000;0.6325;0.5668;
890.4000;0.6341;0.5743;
890.7000;0.6325;0.5743;
891.0000;0.6333;0.5769;
891.3000;0.6333;0.5819;
891.6000;0.6333;0.5844;
891.9000;0.6300;0.5743;
892.2000;0.6325;0.5794;
892.5000;0.6300;0.5743;
892.8000;0.6300;0.5743;
893.1000;0.6325;0.5743;
893.4000;0.6309;0.5718;
893.7000;0.6276;0.5718;
894.0000;0.6317;0.5769;
894.3000;0.6300;0.5743;
894.6000;0.6317;0.5743;
894.9000;0.6317;0.5794;
895.2000;0.6292;0.5819;
895.5000;0.6325;0.5844;
895.8000;0.6317;0.5894;
896.1000;0.6325;0.5894;
896.4000;0.6317;0.5894;
896.7000;0.6325;0.5970;
897.0000;0.6341;0.5970;
897.3000;0.6309;0.5970;
897.6000;0.6374;0.6020;
897.9000;0.6268;0.5718;
898.2000;0.6276;0.5794;
898.5000;0.6333;0.5869;
898.8000;0.6341;0.5869;
899.1000;0.6309;0.5819;
899.4000;0.6309;0.5869;
899.7000;0.6317;0.5894;
900.0000;0.6374;0.6121;
900.3000;0.6276;0.5869;
900.6000;0.6365;0.6121;
900.9000;0.6292;0.5970;
901.2000;0.6284;0.5945;
901.5000;0.6260;0.5894;
901.8000;0.6276;0.5894;
902.1000;0.6317;0.5995;
902.4000;0.6292;0.5945;
902.7000;0.6276;0.5945;
903.0000;0.6374;0.6197;
903.3000;0.6317;0.5970;
903.6000;0.6292;0.5819;
903.9000;0.6284;0.5693;
904.2000;0.6357;0.5819;
904.5000;0.6292;0.5617;
904.8000;0.6317;0.5718;
905.1000;0.6333;0.5769;
905.4000;0.6292;0.5743;
905.7000;0.6268;0.5668;
906.0000;0.6292;0.5743;
906.3000;0.6300;0.5693;
906.6000;0.6300;0.5617;
906.9000;0.6309;0.5617;
907.2000;0.6284;0.5643;
907.5000;0.6284;0.5617;
907.8000;0.6284;0.5567;
908.1000;0.6292;0.5693;
908.4000;0.6300;0.5743;
908.7000;0.6284;0.5718;
909.0000;0.6309;0.5819;
909.3000;0.6284;0.5844;
909.6000;0.6300;0.5794;
909.9000;0.6292;0.5844;
910.2000;0.6300;0.5844;
910.5000;0.6284;0.5844;
910.8000;0.6300;0.5844;
911.1000;0.6292;0.5794;
911.4000;0.6317;0.5844;
911.7000;0.6292;0.5743;
912.0000;0.6292;0.5718;
912.3000;0.6300;0.5718;
912.6000;0.6276;0.5718;
912.9000;0.6268;0.5743;
913.2000;0.6300;0.5794;
913.5000;0.6292;0.5769;
913.8000;0.6300;0.5743;
914.1000;0.6276;0.5643;
914.4000;0.6268;0.5693;
914.7000;0.6284;0.5794;
915.0000;0.6284;0.5844;
915.3000;0.6268;0.5794;
915.6000;0.6284;0.5844;
915.9000;0.6309;0.5894;
916.2000;0.6292;0.5794;
916.5000;0.6309;0.5819;
916.8000;0.6300;0.5794;
917.1000;0.6309;0.5718;
917.4000;0.6309;0.5794;
917.7000;0.6309;0.5693;
918.0000;0.6300;0.5643;
918.3000;0.6292;0.5769;
918.6000;0.6276;0.5743;
918.9000;0.6300;0.5819;
919.2000;0.6268;0.5819;
919.5000;0.6276;0.5718;
919.8000;0.6235;0.5592;
920.1000;0.6292;0.5769;
920.4000;0.6219;0.5542;
920.7000;0.6268;0.5743;
921.0000;0.6276;0.5819;
921.3000;0.6276;0.5894;
921.6000;0.6357;0.5995;
921.9000;0.6276;0.5794;
922.2000;0.6292;0.5819;
922.5000;0.6284;0.5769;
922.8000;0.6276;0.5718;
923.1000;0.6276;0.5693;
923.4000;0.6268;0.5617;
923.7000;0.6260;0.5718;
924.0000;0.6292;0.5743;
924.3000;0.6276;0.5718;
924.6000;0.6252;0.5643;
924.9000;0.6284;0.5668;
925.2000;0.6276;0.5693;
925.5000;0.6300;0.5769;
925.8000;0.6292;0.5693;
926.1000;0.6309;0.5794;
926.4000;0.6284;0.5718;
926.7000;0.6300;0.5769;
927.0000;0.6309;0.5743;
927.3000;0.6276;0.5668;
927.6000;0.6292;0.5769;
927.9000;0.6276;0.5743;
928.2000;0.6268;0.5794;
928.5000;0.6260;0.5844;
928.8000;0.6268;0.5869;
929.1000;0.6276;0.5894;
929.4000;0.6276;0.5869;
929.7000;0.6349;0.6071;
930.0000;0.6268;0.5894;
930.3000;0.6300;0.5920;
930.6000;0.6268;0.5769;
930.9000;0.6276;0.5819;
931.2000;0.6292;0.5920;
931.5000;0.6260;0.5869;
931.8000;0.6292;0.5920;
932.1000;0.6276;0.5945;
932.4000;0.6276;0.5920;
932.7000;0.6268;0.5945;
933.0000;0.6268;0.5819;
933.3000;0.6276;0.5794;
933.6000;0.6276;0.5869;
933.9000;0.6276;0.5844;
934.2000;0.6292;0.5894;
934.5000;0.6276;0.5920;
934.8000;0.6268;0.5894;
935.1000;0.6276;0.5869;
935.4000;0.6260;0.5844;
935.7000;0.6284;0.5920;
936.0000;0.6260;0.5920;
936.3000;0.6268;0.5869;
936.6000;0.6268;0.5945;
936.9000;0.6268;0.5869;
937.2000;0.6235;0.5668;
937.5000;0.6260;0.5769;
937.8000;0.6276;0.5794;
938.1000;0.6268;0.5844;
938.4000;0.6243;0.5794;
938.7000;0.6252;0.5844;
939.0000;0.6235;0.5794;
939.3000;0.6260;0.5894;
939.6000;0.6260;0.5869;
939.9000;0.6252;0.5819;
940.2000;0.6268;0.5869;
940.5000;0.6276;0.5894;
940.8000;0.6268;0.5794;
941.1000;0.6260;0.5769;
941.4000;0.6252;0.5643;
941.7000;0.6276;0.5743;
942.0000;0.6268;0.5718;
942.3000;0.6292;0.5769;
942.6000;0.6276;0.5743;
942.9000;0.6203;0.5592;
943.2000;0.6268;0.5844;
943.5000;0.6325;0.6020;
943.8000;0.6268;0.5945;
944.1000;0.6268;0.5970;
944.4000;0.6260;0.5970;
944.7000;0.6268;0.5995;
945.0000;0.6260;0.5945;
945.3000;0.6260;0.5844;
945.6000;0.6284;0.5970;
945.9000;0.6243;0.5920;
946.2000;0.6252;0.5894;
946.5000;0.6260;0.5970;
946.8000;0.6260;0.5970;
947.1000;0.6260;0.5894;
947.4000;0.6268;0.5894;
947.7000;0.6276;0.5819;
948.0000;0.6252;0.5769;
948.3000;0.6252;0.5769;
948.6000;0.6243;0.5693;
948.9000;0.6252;0.5668;
949.2000;0.6252;0.5718;
949.5000;0.6260;0.5743;
949.8000;0.6227;0.5643;
950.1000;0.6243;0.5693;
950.4000;0.6260;0.5769;
950.7000;0.6252;0.5844;
951.0000;0.6252;0.5819;
951.3000;0.6260;0.5844;
951.6000;0.6268;0.5869;
951.9000;0.6268;0.5794;
952.2000;0.6260;0.5794;
952.5000;0.6252;0.5769;
952.8000;0.6252;0.5844;
953.1000;0.6260;0.5920;
953.4000;0.6268;0.5970;
953.7000;0.6219;0.5869;
954.0000;0.6252;0.5920;
954.3000;0.6260;0.5970;
954.6000;0.6252;0.5869;
954.9000;0.6227;0.5920;
955.2000;0.6219;0.5869;
955.5000;0.6243;0.5920;
955.8000;0.6252;0.5819;
956.1000;0.6235;0.5869;
956.4000;0.6243;0.5920;
956.7000;0.6203;0.5869;
957.0000;0.6252;0.5995;
957.3000;0.6211;0.5819;
957.6000;0.6252;0.5995;
957.9000;0.6252;0.5970;
958.2000;0.6211;0.5769;
958.5000;0.6284;0.5869;
958.8000;0.6243;0.5869;
959.1000;0.6243;0.5869;
959.4000;0.6309;0.5920;
959.7000;0.6235;0.5617;
960.0000;0.6243;0.5643;
960.3000;0.6317;0.5894;
960.6000;0.6235;0.5743;
960.9000;0.6252;0.5668;
961.2000;0.6227;0.5643;
961.5000;0.6235;0.5718;
961.8000;0.6260;0.5769;
962.1000;0.6284;0.5869;
962.4000;0.6252;0.5794;
962.7000;0.6252;0.5743;
963.0000;0.6260;0.5794;
963.3000;0.6292;0.5920;
963.6000;0.6235;0.5819;
963.9000;0.6243;0.5869;
964.2000;0.6243;0.5920;
964.5000;0.6219;0.5844;
964.8000;0.6260;0.5894;
965.1000;0.6243;0.5920;
965.4000;0.6178;0.5743;
965.7000;0.6243;0.5970;
966.0000;0.6235;0.5995;
966.3000;0.6243;0.5970;
966.6000;0.6243;0.5920;
966.9000;0.6252;0.5844;
967.2000;0.6227;0.5794;
967.5000;0.6203;0.5819;
967.8000;0.6243;0.5869;
968.1000;0.6235;0.5794;
968.4000;0.6252;0.5819;
968.7000;0.6243;0.5945;
969.0000;0.6243;0.5995;
969.3000;0.6235;0.6071;
969.6000;0.6252;0.6046;
969.9000;0.6243;0.5920;
970.2000;0.6227;0.5894;
970.5000;0.6227;0.5945;
970.8000;0.6235;0.5995;
971.1000;0.6260;0.5995;
971.4000;0.6227;0.5894;
971.7000;0.6252;0.5995;
972.0000;0.6252;0.6046;
972.3000;0.6243;0.6020;
972.6000;0.6243;0.5970;
972.9000;0.6227;0.5894;
973.2000;0.6227;0.5970;
973.5000;0.6243;0.5945;
973.8000;0.6243;0.5920;
974.1000;0.6235;0.5894;
974.4000;0.6227;0.5794;
974.7000;0.6227;0.5894;
975.0000;0.6235;0.5869;
975.3000;0.6219;0.5869;
975.6000;0.6276;0.6020;
975.9000;0.6243;0.5945;
976.2000;0.6252;0.5945;
976.5000;0.6227;0.5869;
976.8000;0.6235;0.5844;
977.1000;0.6235;0.5894;
977.4000;0.6276;0.6046;
977.7000;0.6243;0.6020;
978.0000;0.6252;0.6046;
978.3000;0.6227;0.6020;
978.6000;0.6243;0.5995;
978.9000;0.6243;0.6046;
979.2000;0.6235;0.5920;
979.5000;0.6219;0.5844;
979.8000;0.6235;0.5894;
980.1000;0.6235;0.5844;
980.4000;0.6227;0.5844;
980.7000;0.6243;0.5794;
981.0000;0.6211;0.5718;
981.3000;0.6252;0.5743;
981.6000;0.6219;0.5718;
981.9000;0.6227;0.5718;
982.2000;0.6235;0.5643;
982.5000;0.6243;0.5693;
982.8000;0.6243;0.5769;
983.1000;0.6284;0.5819;
983.4000;0.6260;0.5794;
983.7000;0.6276;0.5794;
984.0000;0.6243;0.5794;
984.3000;0.6162;0.5567;
984.6000;0.6260;0.5794;
984.9000;0.6252;0.5769;
985.2000;0.6243;0.5718;
985.5000;0.6235;0.5743;
985.8000;0.6203;0.5769;
986.1000;0.6276;0.5894;
986.4000;0.6235;0.5743;
986.7000;0.6235;0.5743;
987.0000;0.6219;0.5718;
987.3000;0.6260;0.5869;
987.6000;0.6252;0.5869;
987.9000;0.6235;0.5995;
988.2000;0.6243;0.5995;
988.5000;0.6227;0.6071;
988.8000;0.6178;0.5869;
989.1000;0.6243;0.5920;
989.4000;0.6219;0.5945;
989.7000;0.6219;0.5920;
990.0000;0.6227;0.6046;
990.3000;0.6219;0.5970;
990.6000;0.6219;0.5970;
990.9000;0.6219;0.6046;
991.2000;0.6243;0.6020;
991.5000;0.6243;0.5920;
991.8000;0.6227;0.5869;
992.1000;0.6227;0.5995;
992.4000;0.6227;0.5970;
992.7000;0.6235;0.6020;
993.0000;0.6162;0.5819;
993.3000;0.6235;0.5945;
993.6000;0.6219;0.5869;
993.9000;0.6227;0.5920;
994.2000;0.6235;0.5844;
994.5000;0.6219;0.5920;
994.8000;0.6252;0.5920;
995.1000;0.6235;0.5844;
995.4000;0.6227;0.5869;
995.7000;0.6219;0.5844;
996.0000;0.6219;0.5869;
996.3000;0.6235;0.5869;
996.6000;0.6227;0.5819;
996.9000;0.6211;0.5819;
997.2000;0.6227;0.5844;
997.5000;0.6170;0.5718;
997.8000;0.6235;0.5920;
998.1000;0.6219;0.5920;
998.4000;0.6227;0.5995;
998.7000;0.6235;0.5995;
999.0000;0.6235;0.5920;
999.3000;0.6227;0.5945;
999.6000;0.6227;0.5894;
999.9000;0.6227;0.5894;
1000.2000;0.6195;0.5894;
1000.5000;0.6235;0.5970;
1000.8000;0.6219;0.5844;
1001.1000;0.6203;0.5869;
1001.4000;0.6211;0.5894;
1001.7000;0.6219;0.5920;
1002.0000;0.6211;0.5819;
1002.3000;0.6227;0.5894;
1002.6000;0.6211;0.5869;
1002.9000;0.6227;0.5819;
1003.2000;0.6146;0.5668;
1003.5000;0.6211;0.5743;
1003.8000;0.6227;0.5693;
1004.1000;0.6235;0.5643;
1004.4000;0.6243;0.5567;
1004.7000;0.6203;0.5517;
1005.0000;0.6203;0.5466;
1005.3000;0.6203;0.5542;
1005.6000;0.6211;0.5693;
1005.9000;0.6227;0.5743;
1006.2000;0.6227;0.5819;
1006.5000;0.6227;0.5894;
1006.8000;0.6211;0.5844;
1007.1000;0.6211;0.5794;
1007.4000;0.6203;0.5819;
1007.7000;0.6211;0.5844;
1008.0000;0.6227;0.5794;
1008.3000;0.6227;0.5819;
1008.6000;0.6219;0.5894;
1008.9000;0.6219;0.5945;
1009.2000;0.6227;0.5970;
1009.5000;0.6219;0.5920;
1009.8000;0.6235;0.5995;
1010.1000;0.6235;0.5945;
1010.4000;0.6219;0.5970;
1010.7000;0.6211;0.5920;
1011.0000;0.6211;0.5945;
1011.3000;0.6203;0.5970;
1011.6000;0.6211;0.5970;
1011.9000;0.6219;0.5945;
1012.2000;0.6211;0.5920;
1012.5000;0.6211;0.6071;
1012.8000;0.6211;0.6046;
1013.1000;0.6227;0.5945;
1013.4000;0.6211;0.5844;
1013.7000;0.6211;0.5769;
1014.0000;0.6219;0.5869;
1014.3000;0.6219;0.5894;
1014.6000;0.6219;0.5844;
1014.9000;0.6170;0.5769;
1015.2000;0.6219;0.5869;
1015.5000;0.6227;0.5945;
1015.8000;0.6211;0.5894;
1016.1000;0.6203;0.5844;
1016.4000;0.6170;0.5718;
1016.7000;0.6211;0.5769;
1017.0000;0.6211;0.5869;
1017.3000;0.6203;0.5920;
1017.6000;0.6219;0.5894;
1017.9000;0.6219;0.5819;
1018.2000;0.6211;0.5819;
1018.5000;0.6276;0.5869;
1018.8000;0.6195;0.5668;
1019.1000;0.6227;0.5693;
1019.4000;0.6219;0.5668;
1019.7000;0.6219;0.5643;
1020.0000;0.6195;0.5617;
1020.3000;0.6211;0.5592;
1020.6000;0.6211;0.5668;
1020.9000;0.6195;0.5643;
1021.2000;0.6203;0.5643;
1021.5000;0.6219;0.5668;
1021.8000;0.6219;0.5718;
1022.1000;0.6227;0.5693;
1022.4000;0.6219;0.5668;
1022.7000;0.6203;0.5542;
1023.0000;0.6227;0.5491;
1023.3000;0.6227;0.5491;
1023.6000;0.6211;0.5441;
1023.9000;0.6284;0.5668;
1024.2000;0.6195;0.5441;
1024.5000;0.6211;0.5441;
1024.8000;0.6227;0.5542;
1025.1000;0.6203;0.5466;
1025.4000;0.6219;0.5517;
1025.7000;0.6219;0.5617;
1026.0000;0.6211;0.5668;
1026.3000;0.6195;0.5693;
1026.6000;0.6203;0.5718;
1026.9000;0.6178;0.5743;
1027.2000;0.6211;0.5844;
1027.5000;0.6195;0.5844;
1027.8000;0.6203;0.5869;
1028.1000;0.6203;0.5894;
1028.4000;0.6178;0.5769;
1028.7000;0.6195;0.5769;
1029.0000;0.6203;0.5844;
1029.3000;0.6211;0.5819;
1029.6000;0.6219;0.5844;
1029.9000;0.6227;0.5920;
1030.2000;0.6219;0.5945;
1030.5000;0.6227;0.5945;
1030.8000;0.6235;0.5945;
1031.1000;0.6219;0.5894;
1031.4000;0.6203;0.5869;
1031.7000;0.6195;0.5844;
1032.0000;0.6203;0.5920;
1032.3000;0.6154;0.5794;
1032.6000;0.6203;0.5844;
1032.9000;0.6211;0.5844;
1033.2000;0.6203;0.5920;
1033.5000;0.6211;0.5970;
1033.8000;0.6195;0.5970;
1034.1000;0.6211;0.6071;
1034.4000;0.6235;0.6096;
1034.7000;0.6211;0.5995;
1035.0000;0.6235;0.6046;
1035.3000;0.6219;0.5970;
1035.6000;0.6268;0.6071;
1035.9000;0.6178;0.5844;
1036.2000;0.6203;0.5920;
1036.5000;0.6203;0.5869;
1036.8000;0.6162;0.5743;
1037.1000;0.6195;0.5819;
1037.4000;0.6186;0.5844;
1037.7000;0.6203;0.5945;
1038.0000;0.6203;0.5920;
1038.3000;0.6203;0.5945;
1038.6000;0.6211;0.5920;
1038.9000;0.6195;0.5945;
1039.2000;0.6211;0.6071;
1039.5000;0.6211;0.5945;
1039.8000;0.6227;0.5945;
1040.1000;0.6203;0.5995;
1040.4000;0.6195;0.5894;
1040.7000;0.6203;0.5844;
1041.0000;0.6211;0.5844;
1041.3000;0.6211;0.5920;
1041.6000;0.6170;0.5819;
1041.9000;0.6186;0.5844;
1042.2000;0.6186;0.5819;
1042.5000;0.6211;0.5869;
1042.8000;0.6203;0.5819;
1043.1000;0.6186;0.5819;
1043.4000;0.6203;0.5769;
1043.7000;0.6211;0.5819;
1044.0000;0.6186;0.5794;
1044.3000;0.6178;0.5819;
1044.6000;0.6178;0.5794;
1044.9000;0.6203;0.5844;
1045.2000;0.6186;0.5869;
1045.5000;0.6186;0.5869;
1045.8000;0.6186;0.5794;
1046.1000;0.6186;0.5844;
1046.4000;0.6211;0.5894;
1046.7000;0.6211;0.5819;
1047.0000;0.6211;0.5819;
1047.3000;0.6186;0.5794;
1047.6000;0.6195;0.5819;
1047.9000;0.6203;0.5945;
1048.2000;0.6227;0.6020;
1048.5000;0.6195;0.5995;
1048.8000;0.6195;0.6046;
1049.1000;0.6203;0.6046;
1049.4000;0.6162;0.5920;
1049.7000;0.6203;0.5995;
1050.0000;0.6227;0.6096;
1050.3000;0.6211;0.6020;
1050.6000;0.6243;0.6071;
1050.9000;0.6195;0.5945;
1051.2000;0.6195;0.5995;
1051.5000;0.6211;0.5995;
1051.8000;0.6186;0.5894;
1052.1000;0.6195;0.5894;
1052.4000;0.6170;0.5718;
1052.7000;0.6203;0.5844;
1053.0000;0.6203;0.5869;
1053.3000;0.6203;0.5819;
1053.6000;0.6227;0.5894;
1053.9000;0.6211;0.5869;
1054.2000;0.6227;0.5869;
1054.5000;0.6195;0.5894;
1054.8000;0.6219;0.5894;
1055.1000;0.6203;0.5894;
1055.4000;0.6203;0.5894;
1055.7000;0.6195;0.5844;
1056.0000;0.6219;0.5920;
1056.3000;0.6186;0.5844;
1056.6000;0.6203;0.5794;
1056.9000;0.6195;0.5743;
1057.2000;0.6162;0.5718;
1057.5000;0.6162;0.5743;
1057.8000;0.6235;0.5920;
1058.1000;0.6121;0.5592;
1058.4000;0.6195;0.5844;
1058.7000;0.6203;0.5819;
1059.0000;0.6203;0.5769;
1059.3000;0.6195;0.5819;
1059.6000;0.6186;0.5869;
1059.9000;0.6195;0.5794;
1060.2000;0.6203;0.5794;
1060.5000;0.6211;0.5743;
1060.8000;0.6195;0.5693;
1061.1000;0.6186;0.5819;
1061.4000;0.6211;0.5844;
1061.7000;0.6170;0.5769;
1062.0000;0.6195;0.5718;
1062.3000;0.6186;0.5643;
1062.6000;0.6203;0.5592;
1062.9000;0.6195;0.5491;
1063.2000;0.6203;0.5466;
1063.5000;0.6178;0.5517;
1063.8000;0.6186;0.5491;
1064.1000;0.6195;0.5517;
1064.4000;0.6203;0.5466;
1064.7000;0.6219;0.5517;
1065.0000;0.6203;0.5592;
1065.3000;0.6178;0.5592;
1065.6000;0.6195;0.5718;
1065.9000;0.6203;0.5743;
1066.2000;0.6195;0.5794;
1066.5000;0.6219;0.5920;
1066.8000;0.6195;0.5894;
1067.1000;0.6211;0.5995;
1067.4000;0.6195;0.5970;
1067.7000;0.6203;0.5995;
1068.0000;0.6178;0.5945;
1068.3000;0.6186;0.5920;
1068.6000;0.6186;0.5869;
1068.9000;0.6170;0.5794;
1069.2000;0.6203;0.5894;
1069.5000;0.6195;0.5920;
1069.8000;0.6178;0.5894;
1070.1000;0.6195;0.5894;
1070.4000;0.6186;0.5920;
1070.7000;0.6178;0.5920;
1071.0000;0.6138;0.5718;
1071.3000;0.6195;0.5945;
1071.6000;0.6178;0.5945;
1071.9000;0.6186;0.5995;
1072.2000;0.6138;0.5920;
1072.5000;0.6178;0.6071;
1072.8000;0.6186;0.6121;
1073.1000;0.6178;0.6222;
1073.4000;0.6162;0.6172;
1073.7000;0.6162;0.6096;
1074.0000;0.6186;0.6146;
1074.3000;0.6243;0.6272;
1074.6000;0.6178;0.6096;
1074.9000;0.6170;0.6071;
1075.2000;0.6178;0.6071;
1075.5000;0.6211;0.6096;
1075.8000;0.6186;0.5970;
1076.1000;0.6186;0.6020;
1076.4000;0.6203;0.6046;
1076.7000;0.6195;0.6071;
1077.0000;0.6170;0.6071;
1077.3000;0.6170;0.6096;
1077.6000;0.6154;0.6020;
1077.9000;0.6186;0.6071;
1078.2000;0.6154;0.5894;
1078.5000;0.6178;0.5945;
1078.8000;0.6178;0.5995;
1079.1000;0.6211;0.6096;
1079.4000;0.6195;0.6071;
1079.7000;0.6178;0.5970;
1080.0000;0.6186;0.5995;
1080.3000;0.6162;0.5894;
1080.6000;0.6195;0.5970;
1080.9000;0.6186;0.5945;
1081.2000;0.6129;0.5794;
1081.5000;0.6186;0.5920;
1081.8000;0.6186;0.5844;
1082.1000;0.6203;0.5819;
1082.4000;0.6178;0.5869;
1082.7000;0.6178;0.5920;
1083.0000;0.6178;0.5970;
1083.3000;0.6162;0.5894;
1083.6000;0.6178;0.6020;
1083.9000;0.6138;0.5869;
1084.2000;0.6203;0.6046;
1084.5000;0.6235;0.6172;
1084.8000;0.6186;0.6096;
1085.1000;0.6178;0.6096;
1085.4000;0.6186;0.6096;
1085.7000;0.6186;0.6121;
1086.0000;0.6186;0.6096;
1086.3000;0.6186;0.6172;
1086.6000;0.6170;0.6172;
1086.9000;0.6186;0.6121;
1087.2000;0.6195;0.6197;
1087.5000;0.6195;0.6222;
1087.8000;0.6178;0.6146;
1088.1000;0.6203;0.6121;
1088.4000;0.6186;0.6071;
1088.7000;0.6186;0.6071;
1089.0000;0.6186;0.6020;
1089.3000;0.6178;0.5995;
1089.6000;0.6227;0.6146;
1089.9000;0.6178;0.6020;
1090.2000;0.6195;0.6121;
1090.5000;0.6186;0.6172;
1090.8000;0.6186;0.6247;
1091.1000;0.6268;0.6423;
1091.4000;0.6186;0.6197;
1091.7000;0.6186;0.6121;
1092.0000;0.6178;0.6121;
1092.3000;0.6252;0.6323;
1092.6000;0.6203;0.6272;
1092.9000;0.6162;0.6096;
1093.2000;0.6178;0.6096;
1093.5000;0.6203;0.6146;
1093.8000;0.6146;0.6020;
1094.1000;0.6162;0.5945;
1094.4000;0.6195;0.5970;
1094.7000;0.6186;0.5970;
1095.0000;0.6146;0.5920;
1095.3000;0.6195;0.6046;
1095.6000;0.6186;0.5970;
1095.9000;0.6195;0.5970;
1096.2000;0.6170;0.5794;
1096.5000;0.6178;0.5794;
1096.8000;0.6178;0.5844;
1097.1000;0.6186;0.5844;
1097.4000;0.6178;0.5819;
1097.7000;0.6186;0.5945;
1098.0000;0.6154;0.5945;
1098.3000;0.6162;0.5995;
1098.6000;0.6170;0.5945;
1098.9000;0.6162;0.5920;
1099.2000;0.6178;0.5920;
1099.5000;0.6154;0.5995;
1099.8000;0.6219;0.6146;
1100.1000;0.6170;0.5920;
1100.4000;0.6195;0.5995;
1100.7000;0.6178;0.6020;
1101.0000;0.6178;0.6046;
1101.3000;0.6178;0.6071;
1101.6000;0.6186;0.6046;
1101.9000;0.6162;0.5920;
1102.2000;0.6186;0.5920;
1102.5000;0.6178;0.5819;
1102.8000;0.6154;0.5844;
1103.1000;0.6178;0.5945;
1103.4000;0.6146;0.5894;
1103.7000;0.6162;0.5945;
1104.0000;0.6162;0.5970;
1104.3000;0.6162;0.5920;
1104.6000;0.6162;0.5995;
1104.9000;0.6129;0.6071;
1105.2000;0.6154;0.6096;
1105.5000;0.6162;0.6046;
1105.8000;0.6162;0.6020;
1106.1000;0.6186;0.6046;
1106.4000;0.6154;0.5995;
1106.7000;0.6162;0.6020;
1107.0000;0.6170;0.6020;
1107.3000;0.6170;0.5920;
1107.6000;0.6227;0.6046;
1107.9000;0.6154;0.5894;
1108.2000;0.6146;0.5945;
1108.5000;0.6162;0.5920;
1108.8000;0.6195;0.5945;
1109.1000;0.6162;0.5794;
1109.4000;0.6154;0.5819;
1109.7000;0.6154;0.5844;
1110.0000;0.6146;0.5819;
1110.3000;0.6170;0.5869;
1110.6000;0.6178;0.5920;
1110.9000;0.6170;0.5945;
1111.2000;0.6186;0.5995;
1111.5000;0.6186;0.5920;
1111.8000;0.6178;0.5844;
1112.1000;0.6170;0.5844;
1112.4000;0.6186;0.5819;
1112.7000;0.6178;0.5844;
1113.0000;0.6162;0.5794;
1113.3000;0.6162;0.5743;
1113.6000;0.6195;0.5920;
1113.9000;0.6154;0.5869;
1114.2000;0.6154;0.5844;
1114.5000;0.6138;0.5995;
1114.8000;0.6154;0.6020;
1115.1000;0.6195;0.6071;
1115.4000;0.6178;0.5970;
1115.7000;0.6178;0.5945;
1116.0000;0.6178;0.5769;
1116.3000;0.6178;0.5769;
1116.6000;0.6162;0.5693;
1116.9000;0.6081;0.5567;
1117.2000;0.6113;0.5668;
1117.5000;0.6170;0.5794;
1117.8000;0.6146;0.5743;
1118.1000;0.6146;0.5743;
1118.4000;0.6162;0.5769;
1118.7000;0.6170;0.5794;
1119.0000;0.6178;0.5769;
1119.3000;0.6170;0.5718;
1119.6000;0.6162;0.5794;
1119.9000;0.6154;0.5844;
1120.2000;0.6154;0.5844;
1120.5000;0.6154;0.5844;
1120.8000;0.6162;0.5945;
1121.1000;0.6154;0.5970;
1121.4000;0.6203;0.6121;
1121.7000;0.6195;0.6096;
1122.0000;0.6170;0.6071;
1122.3000;0.6170;0.6146;
1122.6000;0.6146;0.6096;
1122.9000;0.6162;0.6146;
1123.2000;0.6178;0.6197;
1123.5000;0.6170;0.6121;
1123.8000;0.6154;0.6121;
1124.1000;0.6178;0.6121;
1124.4000;0.6219;0.6197;
1124.7000;0.6129;0.5970;
1125.0000;0.6178;0.6096;
1125.3000;0.6170;0.6046;
1125.6000;0.6154;0.5945;
1125.9000;0.6186;0.5970;
1126.2000;0.6170;0.6020;
1126.5000;0.6186;0.6071;
1126.8000;0.6195;0.6046;
1127.1000;0.6178;0.6020;
1127.4000;0.6162;0.5970;
1127.7000;0.6186;0.5920;
1128.0000;0.6178;0.5920;
1128.3000;0.6170;0.5920;
1128.6000;0.6178;0.5894;
1128.9000;0.6178;0.5920;
1129.2000;0.6170;0.5869;
1129.5000;0.6162;0.5819;
1129.8000;0.6178;0.5894;
1130.1000;0.6154;0.5894;
1130.4000;0.6097;0.5718;
1130.7000;0.6170;0.5920;
1131.0000;0.6162;0.5920;
1131.3000;0.6154;0.5945;
1131.6000;0.6186;0.5920;
1131.9000;0.6146;0.5794;
1132.2000;0.6138;0.5794;
1132.5000;0.6154;0.5794;
1132.8000;0.6195;0.5970;
1133.1000;0.6154;0.5920;
1133.4000;0.6162;0.5869;
1133.7000;0.6162;0.5920;
1134.0000;0.6178;0.5970;
1134.3000;0.6170;0.6046;
1134.6000;0.6170;0.5995;
1134.9000;0.6162;0.5945;
1135.2000;0.6154;0.5945;
1135.5000;0.6178;0.5970;
1135.8000;0.6162;0.5945;
1136.1000;0.6162;0.5970;
1136.4000;0.6162;0.5970;
1136.7000;0.6162;0.5995;
1137.0000;0.6170;0.5920;
1137.3000;0.6162;0.5945;
1137.6000;0.6154;0.5894;
1137.9000;0.6178;0.5894;
1138.2000;0.6162;0.5844;
1138.5000;0.6162;0.5894;
1138.8000;0.6170;0.5894;
1139.1000;0.6121;0.5794;
1139.4000;0.6178;0.5945;
1139.7000;0.6162;0.5945;
1140.0000;0.6162;0.5844;
1140.3000;0.6211;0.6071;
1140.6000;0.6170;0.5970;
1140.9000;0.6186;0.5920;
1141.2000;0.6170;0.5819;
1141.5000;0.6129;0.5718;
1141.8000;0.6170;0.5794;
1142.1000;0.6162;0.5819;
1142.4000;0.6186;0.5844;
1142.7000;0.6154;0.5743;
1143.0000;0.6195;0.5794;
1143.3000;0.6186;0.5718;
1143.6000;0.6178;0.5693;
1143.9000;0.6113;0.5517;
1144.2000;0.6162;0.5743;
1144.5000;0.6162;0.5819;
1144.8000;0.6170;0.5844;
1145.1000;0.6170;0.5894;
1145.4000;0.6121;0.5869;
1145.7000;0.6162;0.5945;
1146.0000;0.6170;0.5945;
1146.3000;0.6154;0.5869;
1146.6000;0.6162;0.5894;
1146.9000;0.6170;0.5920;
1147.2000;0.6154;0.5844;
1147.5000;0.6170;0.5844;
1147.8000;0.6162;0.5743;
1148.1000;0.6170;0.5869;
1148.4000;0.6162;0.5920;
1148.7000;0.6154;0.5920;
1149.0000;0.6154;0.5970;
1149.3000;0.6162;0.6071;
1149.6000;0.6170;0.6096;
1149.9000;0.6146;0.6071;
1150.2000;0.6162;0.6096;
1150.5000;0.6170;0.6121;
1150.8000;0.6121;0.6071;
1151.1000;0.6186;0.6197;
1151.4000;0.6178;0.6247;
1151.7000;0.6170;0.6172;
1152.0000;0.6113;0.5995;
1152.3000;0.6162;0.6071;
1152.6000;0.6170;0.6020;
1152.9000;0.6154;0.5970;
1153.2000;0.6170;0.6046;
1153.5000;0.6162;0.6071;
1153.8000;0.6154;0.6046;
1154.1000;0.6170;0.6071;
1154.4000;0.6154;0.6046;
1154.7000;0.6162;0.6096;
1155.0000;0.6178;0.6197;
1155.3000;0.6146;0.5945;
1155.6000;0.6138;0.5945;
1155.9000;0.6162;0.6046;
1156.2000;0.6170;0.6046;
1156.5000;0.6162;0.6020;
1156.8000;0.6154;0.5995;
1157.1000;0.6178;0.6046;
1157.4000;0.6154;0.6046;
1157.7000;0.6162;0.6046;
1158.0000;0.6146;0.5995;
1158.3000;0.6162;0.5995;
1158.6000;0.6162;0.6096;
1158.9000;0.6170;0.6096;
1159.2000;0.6170;0.6020;
1159.5000;0.6162;0.6020;
1159.8000;0.6138;0.5945;
1160.1000;0.6146;0.5894;
1160.4000;0.6146;0.5894;
1160.7000;0.6162;0.5920;
1161.0000;0.6162;0.5945;
1161.3000;0.6162;0.5945;
1161.6000;0.6162;0.5920;
1161.9000;0.6146;0.5920;
1162.2000;0.6162;0.5945;
1162.5000;0.6170;0.6020;
1162.8000;0.6162;0.5920;
1163.1000;0.6162;0.5920;
1163.4000;0.6178;0.5995;
1163.7000;0.6162;0.5844;
1164.0000;0.6154;0.5819;
1164.3000;0.6162;0.5920;
1164.6000;0.6146;0.5844;
1164.9000;0.6162;0.5869;
1165.2000;0.6146;0.5894;
1165.5000;0.6138;0.5894;
1165.8000;0.6146;0.5894;
1166.1000;0.6154;0.5945;
1166.4000;0.6170;0.6020;
1166.7000;0.6146;0.5945;
1167.0000;0.6146;0.5995;
1167.3000;0.6162;0.5995;
1167.6000;0.6162;0.6020;
1167.9000;0.6129;0.5869;
1168.2000;0.6146;0.5894;
1168.5000;0.6154;0.5945;
1168.8000;0.6154;0.5970;
1169.1000;0.6154;0.5869;
1169.4000;0.6113;0.5819;
1169.7000;0.6154;0.5894;
1170.0000;0.6138;0.5869;
1170.3000;0.6146;0.5920;
1170.6000;0.6138;0.5869;
1170.9000;0.6162;0.6020;
1171.2000;0.6178;0.5995;
1171.5000;0.6178;0.5894;
1171.8000;0.6146;0.5970;
1172.1000;0.6162;0.5945;
1172.4000;0.6211;0.6146;
1172.7000;0.6170;0.6046;
1173.0000;0.6162;0.6071;
1173.3000;0.6154;0.6071;
1173.6000;0.6162;0.6096;
1173.9000;0.6178;0.5995;
1174.2000;0.6186;0.6046;
1174.5000;0.6162;0.5920;
1174.8000;0.6154;0.5894;
1175.1000;0.6146;0.5995;
1175.4000;0.6146;0.5945;
1175.7000;0.6154;0.5844;
1176.0000;0.6146;0.5920;
1176.3000;0.6154;0.5920;
1176.6000;0.6154;0.5894;
1176.9000;0.6154;0.5894;
1177.2000;0.6129;0.5819;
1177.5000;0.6162;0.5769;
1177.8000;0.6170;0.5794;
1178.1000;0.6154;0.5819;
1178.4000;0.6154;0.5819;
1178.7000;0.6146;0.5844;
1179.0000;0.6154;0.5819;
1179.3000;0.6146;0.5819;
1179.6000;0.6138;0.5769;
1179.9000;0.6154;0.5844;
1180.2000;0.6170;0.5844;
1180.5000;0.6146;0.5794;
1180.8000;0.6138;0.5844;
1181.1000;0.6154;0.5819;
1181.4000;0.6162;0.5718;
1181.7000;0.6154;0.5718;
1182.0000;0.6162;0.5743;
1182.3000;0.6154;0.5718;
1182.6000;0.6162;0.5718;
1182.9000;0.6178;0.5643;
1183.2000;0.6154;0.5617;
1183.5000;0.6146;0.5643;
1183.8000;0.6211;0.5869;
1184.1000;0.6154;0.5769;
1184.4000;0.6138;0.5743;
1184.7000;0.6138;0.5794;
1185.0000;0.6154;0.5869;
1185.3000;0.6146;0.5894;
1185.6000;0.6138;0.5894;
1185.9000;0.6113;0.5869;
1186.2000;0.6138;0.6020;
1186.5000;0.6178;0.6096;
1186.8000;0.6170;0.6020;
1187.1000;0.6178;0.6096;
1187.4000;0.6170;0.6071;
1187.7000;0.6162;0.6071;
1188.0000;0.6113;0.5920;
1188.3000;0.6138;0.5970;
1188.6000;0.6154;0.6071;
1188.9000;0.6186;0.6172;
1189.2000;0.6113;0.5970;
1189.5000;0.6146;0.6046;
1189.8000;0.6146;0.6046;
1190.1000;0.6162;0.6096;
1190.4000;0.6162;0.6071;
1190.7000;0.6146;0.6071;
1191.0000;0.6129;0.6096;
1191.3000;0.6154;0.6172;
1191.6000;0.6154;0.6172;
1191.9000;0.6146;0.6197;
1192.2000;0.6138;0.6146;
1192.5000;0.6162;0.6197;
1192.8000;0.6154;0.6222;
1193.1000;0.6170;0.6272;
1193.4000;0.6162;0.6373;
1193.7000;0.6162;0.6247;
1194.0000;0.6162;0.6272;
1194.3000;0.6154;0.6146;
1194.6000;0.6146;0.6121;
1194.9000;0.6138;0.6096;
1195.2000;0.6146;0.6071;
1195.5000;0.6154;0.6020;
1195.8000;0.6162;0.6046;
1196.1000;0.6138;0.5970;
1196.4000;0.6113;0.5995;
1196.7000;0.6154;0.6121;
1197.0000;0.6219;0.6247;
1197.3000;0.6129;0.5945;
1197.6000;0.6170;0.6046;
1197.9000;0.6146;0.6046;
1198.2000;0.6146;0.6046;
1198.5000;0.6195;0.6096;
1198.8000;0.6138;0.5894;
1199.1000;0.6170;0.5920;
1199.4000;0.6162;0.5869;
1199.7000;0.6146;0.5894;
1200.0000;0.6154;0.5894;
1200.3000;0.6146;0.5894;
1200.6000;0.6138;0.5819;
1200.9000;0.6138;0.5920;
1201.2000;0.6138;0.5920;
1201.5000;0.6154;0.5970;
1201.8000;0.6146;0.5819;
1202.1000;0.6146;0.5869;
1202.4000;0.6129;0.5894;
1202.7000;0.6121;0.5844;
1203.0000;0.6146;0.5894;
1203.3000;0.6146;0.5995;
1203.6000;0.6138;0.5995;
1203.9000;0.6113;0.5945;
1204.2000;0.6146;0.5970;
1204.5000;0.6195;0.6071;
1204.8000;0.6129;0.5945;
1205.1000;0.6129;0.6020;
1205.4000;0.6138;0.5970;
1205.7000;0.6129;0.5995;
1206.0000;0.6154;0.6046;
1206.3000;0.6146;0.5894;
1206.6000;0.6170;0.5819;
1206.9000;0.6154;0.5869;
1207.2000;0.6138;0.5894;
1207.5000;0.6154;0.5894;
1207.8000;0.6138;0.5920;
1208.1000;0.6146;0.6020;
1208.4000;0.6138;0.5995;
1208.7000;0.6146;0.6020;
1209.0000;0.6121;0.6046;
1209.3000;0.6162;0.6096;
1209.6000;0.6162;0.6096;
1209.9000;0.6186;0.6071;
1210.2000;0.6162;0.5995;
1210.5000;0.6146;0.5869;
1210.8000;0.6146;0.5869;
1211.1000;0.6146;0.5894;
1211.4000;0.6129;0.5769;
1211.7000;0.6162;0.5693;
1212.0000;0.6121;0.5693;
1212.3000;0.6154;0.5769;
1212.6000;0.6146;0.5668;
1212.9000;0.6178;0.5769;
1213.2000;0.6162;0.5794;
1213.5000;0.6138;0.5819;
1213.8000;0.6121;0.5769;
1214.1000;0.6146;0.5794;
1214.4000;0.6089;0.5592;
1214.7000;0.6154;0.5668;
1215.0000;0.6154;0.5643;
1215.3000;0.6162;0.5794;
1215.6000;0.6146;0.5794;
1215.9000;0.6105;0.5743;
1216.2000;0.6129;0.5794;
1216.5000;0.6138;0.5769;
1216.8000;0.6146;0.5819;
1217.1000;0.6129;0.5769;
1217.4000;0.6162;0.5819;
1217.7000;0.6227;0.6020;
1218.0000;0.6138;0.5819;
1218.3000;0.6154;0.5945;
1218.6000;0.6154;0.6046;
1218.9000;0.6081;0.5920;
1219.2000;0.6146;0.5920;
1219.5000;0.6162;0.5869;
1219.8000;0.6154;0.5920;
1220.1000;0.6138;0.5869;
1220.4000;0.6146;0.5869;
1220.7000;0.6162;0.5920;
1221.0000;0.6154;0.5970;
1221.3000;0.6138;0.5970;
1221.6000;0.6146;0.6046;
1221.9000;0.6154;0.6046;
1222.2000;0.6154;0.6046;
1222.5000;0.6154;0.6046;
1222.8000;0.6138;0.5995;
1223.1000;0.6162;0.6121;
1223.4000;0.6162;0.6121;
1223.7000;0.6154;0.6096;
1224.0000;0.6162;0.6096;
1224.3000;0.6121;0.5970;
1224.6000;0.6154;0.5945;
1224.9000;0.6146;0.5869;
1225.2000;0.6146;0.5794;
1225.5000;0.6129;0.5693;
1225.8000;0.6129;0.5718;
1226.1000;0.6170;0.5743;
1226.4000;0.6138;0.5718;
1226.7000;0.6154;0.5718;
1227.0000;0.6138;0.5693;
1227.3000;0.6154;0.5769;
1227.6000;0.6146;0.5819;
1227.9000;0.6129;0.5819;
1228.2000;0.6138;0.5869;
1228.5000;0.6138;0.6020;
1228.8000;0.6162;0.6146;
1229.1000;0.6146;0.6172;
1229.4000;0.6146;0.6071;
1229.7000;0.6138;0.5970;
1230.0000;0.6154;0.6046;
1230.3000;0.6146;0.5995;
1230.6000;0.6146;0.6046;
1230.9000;0.6113;0.6046;
1231.2000;0.6146;0.6121;
1231.5000;0.6138;0.6197;
1231.8000;0.6154;0.6272;
1232.1000;0.6154;0.6247;
1232.4000;0.6235;0.6499;
1232.7000;0.6138;0.6222;
1233.0000;0.6138;0.6247;
1233.3000;0.6146;0.6247;
1233.6000;0.6129;0.6071;
1233.9000;0.6129;0.6046;
1234.2000;0.6195;0.6146;
1234.5000;0.6138;0.5995;
1234.8000;0.6146;0.5995;
1235.1000;0.6129;0.6020;
1235.4000;0.6129;0.6046;
1235.7000;0.6146;0.6020;
1236.0000;0.6138;0.6046;
1236.3000;0.6105;0.6020;
1236.6000;0.6154;0.6096;
1236.9000;0.6129;0.6071;
1237.2000;0.6146;0.6020;
1237.5000;0.6089;0.5869;
1237.8000;0.6089;0.5894;
1238.1000;0.6138;0.6172;
1238.4000;0.6129;0.6197;
1238.7000;0.6154;0.6172;
1239.0000;0.6138;0.6146;
1239.3000;0.6146;0.6172;
1239.6000;0.6129;0.6146;
1239.9000;0.6138;0.6197;
1240.2000;0.6146;0.6121;
1240.5000;0.6138;0.6172;
1240.8000;0.6154;0.6197;
1241.1000;0.6138;0.6172;
1241.4000;0.6138;0.6121;
1241.7000;0.6146;0.6121;
1242.0000;0.6138;0.6046;
1242.3000;0.6162;0.6071;
1242.6000;0.6146;0.6121;
1242.9000;0.6121;0.5995;
1243.2000;0.6154;0.6096;
1243.5000;0.6146;0.6046;
1243.8000;0.6138;0.5920;
1244.1000;0.6146;0.5995;
1244.4000;0.6235;0.6247;
1244.7000;0.6146;0.6096;
1245.0000;0.6138;0.6096;
1245.3000;0.6146;0.6146;
1245.6000;0.6219;0.6272;
1245.9000;0.6129;0.6096;
1246.2000;0.6129;0.6046;
1246.5000;0.6146;0.6020;
1246.8000;0.6162;0.6071;
1247.1000;0.6138;0.5945;
1247.4000;0.6121;0.5844;
1247.7000;0.6146;0.5894;
1248.0000;0.6081;0.5743;
1248.3000;0.6138;0.5794;
1248.6000;0.6129;0.5743;
1248.9000;0.6154;0.5844;
1249.2000;0.6154;0.5769;
1249.5000;0.6129;0.5769;
1249.8000;0.6113;0.5819;
1250.1000;0.6154;0.5920;
1250.4000;0.6129;0.5920;
1250.7000;0.6154;0.5945;
1251.0000;0.6129;0.5970;
1251.3000;0.6129;0.6046;
1251.6000;0.6138;0.6046;
1251.9000;0.6129;0.5995;
1252.2000;0.6138;0.6020;
1252.5000;0.6146;0.6071;
1252.8000;0.6146;0.6020;
1253.1000;0.6138;0.5970;
1253.4000;0.6129;0.5844;
1253.7000;0.6154;0.5819;
1254.0000;0.6129;0.5819;
1254.3000;0.6154;0.5844;
1254.6000;0.6138;0.5743;
1254.9000;0.6113;0.5718;
1255.2000;0.6162;0.5869;
1255.5000;0.6154;0.5819;
1255.8000;0.6154;0.5844;
1256.1000;0.6138;0.5794;
1256.4000;0.6121;0.5794;
1256.7000;0.6186;0.5970;
1257.0000;0.6121;0.5844;
1257.3000;0.6170;0.5894;
1257.6000;0.6097;0.5693;
1257.9000;0.6121;0.5794;
1258.2000;0.6121;0.5794;
1258.5000;0.6138;0.5869;
1258.8000;0.6138;0.5844;
1259.1000;0.6121;0.5769;
1259.4000;0.6138;0.5819;
1259.7000;0.6138;0.5920;
1260.0000;0.6121;0.5945;
1260.3000;0.6146;0.6020;
1260.6000;0.6129;0.5970;
1260.9000;0.6146;0.5970;
1261.2000;0.6129;0.5995;
1261.5000;0.6162;0.6121;
1261.8000;0.6154;0.6096;
1262.1000;0.6138;0.6096;
1262.4000;0.6146;0.6096;
1262.7000;0.6129;0.6096;
1263.0000;0.6138;0.6121;
1263.3000;0.6138;0.6146;
1263.6000;0.6138;0.6172;
1263.9000;0.6121;0.6096;
1264.2000;0.6113;0.6020;
1264.5000;0.6154;0.6071;
1264.8000;0.6129;0.5945;
1265.1000;0.6129;0.5945;
1265.4000;0.6170;0.5970;
1265.7000;0.6162;0.5995;
1266.0000;0.6138;0.6046;
1266.3000;0.6121;0.5920;
1266.6000;0.6129;0.5894;
1266.9000;0.6146;0.5844;
1267.2000;0.6146;0.5869;
1267.5000;0.6129;0.5844;
1267.8000;0.6129;0.5844;
1268.1000;0.6138;0.5794;
1268.4000;0.6146;0.5819;
1268.7000;0.6129;0.5794;
1269.0000;0.6129;0.5794;
1269.3000;0.6129;0.5894;
1269.6000;0.6146;0.5920;
1269.9000;0.6121;0.5869;
1270.2000;0.6162;0.6020;
1270.5000;0.6138;0.5894;
1270.8000;0.6129;0.5970;
1271.1000;0.6089;0.5920;
1271.4000;0.6129;0.5995;
1271.7000;0.6113;0.5920;
1272.0000;0.6121;0.6020;
1272.3000;0.6113;0.5995;
1272.6000;0.6129;0.5945;
1272.9000;0.6129;0.5970;
1273.2000;0.6129;0.5945;
1273.5000;0.6129;0.5995;
1273.8000;0.6138;0.5920;
1274.1000;0.6129;0.5970;
1274.4000;0.6146;0.6020;
1274.7000;0.6138;0.5920;
1275.0000;0.6121;0.5894;
1275.3000;0.6129;0.5995;
1275.6000;0.6186;0.6096;
1275.9000;0.6146;0.5995;
1276.2000;0.6129;0.5894;
1276.5000;0.6105;0.5920;
1276.8000;0.6146;0.6020;
1277.1000;0.6129;0.6046;
1277.4000;0.6146;0.6046;
1277.7000;0.6129;0.6071;
1278.0000;0.6146;0.6020;
1278.3000;0.6154;0.6071;
1278.6000;0.6121;0.5970;
1278.9000;0.6195;0.6222;
1279.2000;0.6129;0.6071;
1279.5000;0.6138;0.6146;
1279.8000;0.6146;0.6121;
1280.1000;0.6146;0.6172;
1280.4000;0.6081;0.6020;
1280.7000;0.6154;0.6121;
1281.0000;0.6146;0.6096;
1281.3000;0.6154;0.6146;
1281.6000;0.6129;0.6146;
1281.9000;0.6129;0.6172;
1282.2000;0.6154;0.6197;
1282.5000;0.6146;0.6247;
1282.8000;0.6121;0.6071;
1283.1000;0.6129;0.6146;
1283.4000;0.6113;0.6046;
1283.7000;0.6138;0.6020;
1284.0000;0.6129;0.5970;
1284.3000;0.6105;0.5970;
1284.6000;0.6129;0.5945;
1284.9000;0.6146;0.5844;
1285.2000;0.6146;0.5844;
1285.5000;0.6138;0.5869;
1285.8000;0.6146;0.5869;
1286.1000;0.6146;0.5869;
1286.4000;0.6105;0.5769;
1286.7000;0.6146;0.5894;
1287.0000;0.6064;0.5567;
1287.3000;0.6146;0.5693;
1287.6000;0.6129;0.5718;
1287.9000;0.6129;0.5819;
1288.2000;0.6129;0.5844;
1288.5000;0.6105;0.5794;
1288.8000;0.6154;0.6046;
1289.1000;0.6138;0.6020;
1289.4000;0.6129;0.6146;
1289.7000;0.6138;0.6222;
1290.0000;0.6146;0.6272;
1290.3000;0.6138;0.6247;
1290.6000;0.6146;0.6247;
1290.9000;0.6121;0.6172;
1291.2000;0.6154;0.6197;
1291.5000;0.6154;0.6146;
1291.8000;0.6146;0.6146;
1292.1000;0.6121;0.6121;
1292.4000;0.6089;0.5995;
1292.7000;0.6146;0.6071;
1293.0000;0.6129;0.5995;
1293.3000;0.6121;0.5945;
1293.6000;0.6154;0.6046;
1293.9000;0.6146;0.6121;
1294.2000;0.6138;0.6046;
1294.5000;0.6154;0.6071;
1294.8000;0.6138;0.6020;
1295.1000;0.6138;0.6046;
1295.4000;0.6129;0.6071;
1295.7000;0.6121;0.6096;
1296.0000;0.6146;0.6096;
1296.3000;0.6121;0.6046;
1296.6000;0.6113;0.6046;
1296.9000;0.6121;0.6020;
1297.2000;0.6121;0.6020;
1297.5000;0.6121;0.6096;
1297.8000;0.6121;0.6071;
1298.1000;0.6129;0.6020;
1298.4000;0.6121;0.5995;
1298.7000;0.6138;0.6096;
1299.0000;0.6129;0.6020;
1299.3000;0.6138;0.5995;
1299.6000;0.6121;0.6046;
1299.9000;0.6146;0.6146;
1300.2000;0.6146;0.6222;
1300.5000;0.6138;0.6146;
1300.8000;0.6081;0.6071;
1301.1000;0.6129;0.6172;
1301.4000;0.6146;0.6272;
1301.7000;0.6121;0.6172;
1302.0000;0.6129;0.6222;
1302.3000;0.6129;0.6247;
1302.6000;0.6162;0.6323;
1302.9000;0.6129;0.6222;
1303.2000;0.6129;0.6121;
1303.5000;0.6129;0.6121;
1303.8000;0.6138;0.6046;
1304.1000;0.6146;0.6046;
1304.4000;0.6129;0.5945;
1304.7000;0.6138;0.5995;
1305.0000;0.6138;0.5945;
1305.3000;0.6113;0.5869;
1305.6000;0.6121;0.5995;
1305.9000;0.6121;0.5945;
1306.2000;0.6072;0.5769;
1306.5000;0.6138;0.5945;
1306.8000;0.6154;0.5995;
1307.1000;0.6129;0.5920;
1307.4000;0.6129;0.5920;
1307.7000;0.6138;0.5970;
1308.0000;0.6121;0.5819;
1308.3000;0.6113;0.5869;
1308.6000;0.6146;0.5869;
1308.9000;0.6121;0.5844;
1309.2000;0.6121;0.5970;
1309.5000;0.6154;0.6046;
1309.8000;0.6105;0.5945;
1310.1000;0.6113;0.5995;
1310.4000;0.6129;0.6096;
1310.7000;0.6113;0.6146;
1311.0000;0.6154;0.6197;
1311.3000;0.6129;0.6121;
1311.6000;0.6105;0.6046;
1311.9000;0.6138;0.6121;
1312.2000;0.6113;0.6020;
1312.5000;0.6113;0.6071;
1312.8000;0.6138;0.6071;
1313.1000;0.6121;0.6046;
1313.4000;0.6113;0.6020;
1313.7000;0.6048;0.5920;
1314.0000;0.6129;0.6121;
1314.3000;0.6138;0.6247;
1314.6000;0.6146;0.6222;
1314.9000;0.6129;0.6247;
1315.2000;0.6146;0.6297;
1315.5000;0.6154;0.6272;
1315.8000;0.6129;0.6197;
1316.1000;0.6121;0.6096;
1316.4000;0.6138;0.6146;
1316.7000;0.6146;0.6222;
1317.0000;0.6121;0.6046;
1317.3000;0.6113;0.5945;
1317.6000;0.6081;0.5869;
1317.9000;0.6138;0.6046;
1318.2000;0.6121;0.5920;
1318.5000;0.6056;0.5693;
1318.8000;0.6121;0.5894;
1319.1000;0.6129;0.5970;
1319.4000;0.6129;0.6020;
1319.7000;0.6121;0.6146;
1320.0000;0.6129;0.6121;
1320.3000;0.6129;0.6121;
1320.6000;0.6113;0.6071;
1320.9000;0.6121;0.6071;
1321.2000;0.6113;0.6096;
1321.5000;0.6138;0.6146;
1321.8000;0.6121;0.6096;
1322.1000;0.6072;0.5869;
1322.4000;0.6121;0.5920;
1322.7000;0.6129;0.5920;
1323.0000;0.6146;0.5995;
1323.3000;0.6129;0.5970;
1323.6000;0.6121;0.5945;
1323.9000;0.6121;0.5970;
1324.2000;0.6121;0.5995;
1324.5000;0.6121;0.5995;
1324.8000;0.6121;0.5970;
1325.1000;0.6121;0.5920;
1325.4000;0.6129;0.5869;
1325.7000;0.6146;0.5970;
1326.0000;0.6243;0.6172;
1326.3000;0.6129;0.5844;
1326.6000;0.6146;0.5894;
1326.9000;0.6121;0.5869;
1327.2000;0.6121;0.5844;
1327.5000;0.6121;0.5894;
1327.8000;0.6121;0.5995;
1328.1000;0.6138;0.5995;
1328.4000;0.6113;0.6096;
1328.7000;0.6121;0.6071;
1329.0000;0.6097;0.5995;
1329.3000;0.6138;0.6121;
1329.6000;0.6113;0.6096;
1329.9000;0.6146;0.6146;
1330.2000;0.6162;0.6146;
1330.5000;0.6146;0.6020;
1330.8000;0.6129;0.6096;
1331.1000;0.6121;0.6046;
1331.4000;0.6129;0.6071;
1331.7000;0.6129;0.6071;
1332.0000;0.6089;0.6071;
1332.3000;0.6097;0.6046;
1332.6000;0.6113;0.6121;
1332.9000;0.6089;0.6121;
1333.2000;0.6113;0.6096;
1333.5000;0.6105;0.6146;
1333.8000;0.6121;0.6197;
1334.1000;0.6129;0.6247;
1334.4000;0.6138;0.6247;
1334.7000;0.6113;0.6172;
1335.0000;0.6113;0.6146;
1335.3000;0.6129;0.6197;
1335.6000;0.6072;0.6121;
1335.9000;0.6129;0.6247;
1336.2000;0.6121;0.6146;
1336.5000;0.6113;0.6096;
1336.8000;0.6129;0.6121;
1337.1000;0.6113;0.6071;
1337.4000;0.6113;0.6046;
1337.7000;0.6105;0.5995;
1338.0000;0.6113;0.6020;
1338.3000;0.6129;0.5970;
1338.6000;0.6113;0.5920;
1338.9000;0.6113;0.5995;
1339.2000;0.6072;0.5920;
1339.5000;0.6129;0.5995;
1339.8000;0.6113;0.6020;
1340.1000;0.6121;0.5995;
1340.4000;0.6105;0.5920;
1340.7000;0.6121;0.5920;
1341.0000;0.6146;0.5945;
1341.3000;0.6138;0.5945;
1341.6000;0.6121;0.6020;
1341.9000;0.6129;0.6121;
1342.2000;0.6105;0.6121;
1342.5000;0.6105;0.6046;
1342.8000;0.6113;0.6020;
1343.1000;0.6121;0.5995;
1343.4000;0.6129;0.6046;
1343.7000;0.6121;0.5945;
1344.0000;0.6129;0.5945;
1344.3000;0.6097;0.5920;
1344.6000;0.6121;0.5995;
1344.9000;0.6105;0.5995;
1345.2000;0.6105;0.5995;
1345.5000;0.6129;0.6071;
1345.8000;0.6129;0.6046;
1346.1000;0.6105;0.5920;
1346.4000;0.6129;0.5920;
1346.7000;0.6121;0.5894;
1347.0000;0.6097;0.5844;
1347.3000;0.6129;0.5995;
1347.6000;0.6138;0.6046;
1347.9000;0.6113;0.5970;
1348.2000;0.6146;0.5995;
1348.5000;0.6138;0.6020;
1348.8000;0.6138;0.5970;
1349.1000;0.6113;0.5920;
1349.4000;0.6113;0.5920;
1349.7000;0.6146;0.5869;
1350.0000;0.6129;0.5769;
1350.3000;0.6146;0.5869;
1350.6000;0.6121;0.5844;
1350.9000;0.6121;0.5945;
1351.2000;0.6121;0.5920;
1351.5000;0.6138;0.5995;
1351.8000;0.6186;0.6172;
1352.1000;0.6121;0.6071;
1352.4000;0.6129;0.6146;
1352.7000;0.6138;0.6172;
1353.0000;0.6129;0.6121;
1353.3000;0.6162;0.6222;
1353.6000;0.6129;0.6071;
1353.9000;0.6162;0.6096;
1354.2000;0.6129;0.5970;
1354.5000;0.6105;0.6020;
1354.8000;0.6129;0.6096;
1355.1000;0.6121;0.6096;
1355.4000;0.6129;0.6197;
1355.7000;0.6121;0.6172;
1356.0000;0.6056;0.5995;
1356.3000;0.6097;0.6071;
1356.6000;0.6121;0.6046;
1356.9000;0.6138;0.6046;
1357.2000;0.6138;0.6020;
1357.5000;0.6138;0.6046;
1357.8000;0.6121;0.6071;
1358.1000;0.6121;0.6071;
1358.4000;0.6105;0.6071;
1358.7000;0.6121;0.6071;
1359.0000;0.6121;0.6096;
1359.3000;0.6113;0.5995;
1359.6000;0.6121;0.6046;
1359.9000;0.6121;0.6071;
1360.2000;0.6129;0.6121;
1360.5000;0.6129;0.6146;
1360.8000;0.6105;0.6071;
1361.1000;0.6129;0.6146;
1361.4000;0.6138;0.6121;
1361.7000;0.6121;0.6121;
1362.0000;0.6129;0.6222;
1362.3000;0.6121;0.6247;
1362.6000;0.6154;0.6247;
1362.9000;0.6113;0.6146;
1363.2000;0.6121;0.6222;
1363.5000;0.6121;0.6146;
1363.8000;0.6113;0.6046;
1364.1000;0.6121;0.6046;
1364.4000;0.6097;0.5970;
1364.7000;0.6121;0.5995;
1365.0000;0.6121;0.6046;
1365.3000;0.6032;0.5945;
1365.6000;0.6138;0.6121;
1365.9000;0.6105;0.6172;
1366.2000;0.6121;0.6297;
1366.5000;0.6121;0.6297;
1366.8000;0.6129;0.6272;
1367.1000;0.6121;0.6222;
1367.4000;0.6105;0.6172;
1367.7000;0.6121;0.6247;
1368.0000;0.6113;0.6272;
1368.3000;0.6105;0.6197;
1368.6000;0.6113;0.6121;
1368.9000;0.6113;0.6197;
1369.2000;0.6121;0.6146;
1369.5000;0.6113;0.6121;
1369.8000;0.6121;0.6046;
1370.1000;0.6121;0.5970;
1370.4000;0.6129;0.5945;
1370.7000;0.6121;0.5920;
1371.0000;0.6121;0.5869;
1371.3000;0.6129;0.5894;
1371.6000;0.6129;0.5945;
1371.9000;0.6081;0.5920;
1372.2000;0.6113;0.6046;
1372.5000;0.6129;0.6071;
1372.8000;0.6129;0.6096;
1373.1000;0.6121;0.6121;
1373.4000;0.6121;0.6146;
1373.7000;0.6129;0.6146;
1374.0000;0.6064;0.6046;
1374.3000;0.6129;0.6222;
1374.6000;0.6113;0.6172;
1374.9000;0.6121;0.6197;
1375.2000;0.6113;0.6272;
1375.5000;0.6154;0.6323;
1375.8000;0.6113;0.6323;
1376.1000;0.6105;0.6272;
1376.4000;0.6129;0.6348;
1376.7000;0.6138;0.6373;
1377.0000;0.6154;0.6373;
1377.3000;0.6138;0.6348;
1377.6000;0.6129;0.6323;
1377.9000;0.6138;0.6398;
1378.2000;0.6138;0.6373;
1378.5000;0.6113;0.6247;
1378.8000;0.6129;0.6323;
1379.1000;0.6105;0.6247;
1379.4000;0.6089;0.6172;
1379.7000;0.6113;0.6222;
1380.0000;0.6105;0.6197;
1380.3000;0.6129;0.6121;
1380.6000;0.6097;0.6146;
1380.9000;0.6121;0.6172;
1381.2000;0.6097;0.6172;
1381.5000;0.6089;0.6197;
1381.8000;0.6121;0.6222;
1382.1000;0.6121;0.6297;
1382.4000;0.6129;0.6348;
1382.7000;0.6097;0.6297;
1383.0000;0.6121;0.6373;
1383.3000;0.6146;0.6449;
1383.6000;0.6121;0.6323;
1383.9000;0.6129;0.6297;
1384.2000;0.6138;0.6297;
1384.5000;0.6129;0.6297;
1384.8000;0.6113;0.6197;
1385.1000;0.6105;0.6172;
1385.4000;0.6113;0.6222;
1385.7000;0.6121;0.6247;
1386.0000;0.6138;0.6272;
1386.3000;0.6089;0.6046;
1386.6000;0.6113;0.6146;
1386.9000;0.6129;0.6172;
1387.2000;0.6129;0.6146;
1387.5000;0.6121;0.6121;
1387.8000;0.6129;0.6096;
1388.1000;0.6113;0.5970;
1388.4000;0.6138;0.6071;
1388.7000;0.6089;0.5970;
1389.0000;0.6121;0.6096;
1389.3000;0.6064;0.5970;
1389.6000;0.6146;0.6222;
1389.9000;0.6105;0.6172;
1390.2000;0.6105;0.6172;
1390.5000;0.6121;0.6197;
1390.8000;0.6121;0.6172;
1391.1000;0.6089;0.6121;
1391.4000;0.6105;0.6146;
1391.7000;0.6105;0.6172;
1392.0000;0.6121;0.6222;
1392.3000;0.6129;0.6348;
1392.6000;0.6121;0.6323;
1392.9000;0.6121;0.6222;
1393.2000;0.6129;0.6121;
1393.5000;0.6129;0.6172;
1393.8000;0.6162;0.6272;
1394.1000;0.6129;0.6146;
1394.4000;0.6121;0.6046;
1394.7000;0.6113;0.6020;
1395.0000;0.6089;0.5920;
1395.3000;0.6105;0.5970;
1395.6000;0.6089;0.5894;
1395.9000;0.6129;0.6071;
1396.2000;0.6105;0.6071;
1396.5000;0.6113;0.6096;
1396.8000;0.6129;0.6121;
1397.1000;0.6121;0.6146;
1397.4000;0.6105;0.6121;
1397.7000;0.6113;0.6096;
1398.0000;0.6105;0.6121;
1398.3000;0.6113;0.6222;
1398.6000;0.6129;0.6222;
1398.9000;0.6113;0.6121;
1399.2000;0.6121;0.6172;
1399.5000;0.6113;0.6247;
1399.8000;0.6121;0.6222;
