time/ms;Fluo/V;P700 deltaI/I x10³;
-199.8000;0.8523;0.6625;
-199.5000;0.8531;0.6600;
-199.2000;0.8514;0.6549;
-198.9000;0.8514;0.6575;
-198.6000;0.8547;0.6600;
-198.3000;0.8490;0.6398;
-198.0000;0.8531;0.6549;
-197.7000;0.8547;0.6625;
-197.4000;0.8523;0.6650;
-197.1000;0.8523;0.6650;
-196.8000;0.8523;0.6675;
-196.5000;0.8523;0.6726;
-196.2000;0.8531;0.6726;
-195.9000;0.8514;0.6701;
-195.6000;0.8498;0.6776;
-195.3000;0.8514;0.6726;
-195.0000;0.8531;0.6776;
-194.7000;0.8523;0.6751;
-194.4000;0.8531;0.6726;
-194.1000;0.8531;0.6726;
-193.8000;0.8539;0.6701;
-193.5000;0.8547;0.6701;
-193.2000;0.8531;0.6625;
-192.9000;0.8506;0.6549;
-192.6000;0.8547;0.6625;
-192.3000;0.8531;0.6701;
-192.0000;0.8563;0.6776;
-191.7000;0.8531;0.6701;
-191.4000;0.8523;0.6726;
-191.1000;0.8539;0.6751;
-190.8000;0.8498;0.6650;
-190.5000;0.8523;0.6625;
-190.2000;0.8523;0.6600;
-189.9000;0.8539;0.6600;
-189.6000;0.8531;0.6524;
-189.3000;0.8531;0.6474;
-189.0000;0.8506;0.6348;
-188.7000;0.8523;0.6449;
-188.4000;0.8588;0.6625;
-188.1000;0.8531;0.6549;
-187.8000;0.8531;0.6650;
-187.5000;0.8539;0.6650;
-187.2000;0.8539;0.6650;
-186.9000;0.8539;0.6524;
-186.6000;0.8490;0.6398;
-186.3000;0.8531;0.6449;
-186.0000;0.8531;0.6499;
-185.7000;0.8531;0.6499;
-185.4000;0.8523;0.6449;
-185.1000;0.8523;0.6499;
-184.8000;0.8490;0.6499;
-184.5000;0.8531;0.6575;
-184.2000;0.8531;0.6474;
-183.9000;0.8531;0.6398;
-183.6000;0.8547;0.6474;
-183.3000;0.8523;0.6499;
-183.0000;0.8523;0.6549;
-182.7000;0.8588;0.6726;
-182.4000;0.8539;0.6524;
-182.1000;0.8531;0.6524;
-181.8000;0.8539;0.6524;
-181.5000;0.8531;0.6474;
-181.2000;0.8523;0.6449;
-180.9000;0.8531;0.6423;
-180.6000;0.8523;0.6348;
-180.3000;0.8604;0.6524;
-180.0000;0.8539;0.6398;
-179.7000;0.8531;0.6474;
-179.4000;0.8523;0.6524;
-179.1000;0.8490;0.6449;
-178.8000;0.8531;0.6549;
-178.5000;0.8523;0.6398;
-178.2000;0.8457;0.6172;
-177.9000;0.8514;0.6373;
-177.6000;0.8514;0.6373;
-177.3000;0.8539;0.6474;
-177.0000;0.8539;0.6524;
-176.7000;0.8531;0.6524;
-176.4000;0.8539;0.6650;
-176.1000;0.8531;0.6600;
-175.8000;0.8506;0.6600;
-175.5000;0.8539;0.6650;
-175.2000;0.8531;0.6524;
-174.9000;0.8523;0.6575;
-174.6000;0.8555;0.6600;
-174.3000;0.8547;0.6575;
-174.0000;0.8547;0.6524;
-173.7000;0.8514;0.6524;
-173.4000;0.8555;0.6549;
-173.1000;0.8547;0.6524;
-172.8000;0.8531;0.6499;
-172.5000;0.8539;0.6549;
-172.2000;0.8523;0.6524;
-171.9000;0.8539;0.6524;
-171.6000;0.8523;0.6524;
-171.3000;0.8523;0.6625;
-171.0000;0.8523;0.6575;
-170.7000;0.8514;0.6449;
-170.4000;0.8531;0.6398;
-170.1000;0.8523;0.6398;
-169.8000;0.8523;0.6449;
-169.5000;0.8531;0.6423;
-169.2000;0.8531;0.6423;
-168.9000;0.8523;0.6449;
-168.6000;0.8539;0.6449;
-168.3000;0.8547;0.6423;
-168.0000;0.8523;0.6449;
-167.7000;0.8506;0.6423;
-167.4000;0.8531;0.6449;
-167.1000;0.8531;0.6449;
-166.8000;0.8539;0.6575;
-166.5000;0.8531;0.6625;
-166.2000;0.8531;0.6675;
-165.9000;0.8449;0.6449;
-165.6000;0.8539;0.6650;
-165.3000;0.8637;0.6877;
-165.0000;0.8523;0.6650;
-164.7000;0.8531;0.6650;
-164.4000;0.8531;0.6549;
-164.1000;0.8539;0.6524;
-163.8000;0.8514;0.6474;
-163.5000;0.8514;0.6499;
-163.2000;0.8531;0.6549;
-162.9000;0.8539;0.6549;
-162.6000;0.8531;0.6575;
-162.3000;0.8531;0.6575;
-162.0000;0.8523;0.6474;
-161.7000;0.8523;0.6449;
-161.4000;0.8523;0.6398;
-161.1000;0.8498;0.6373;
-160.8000;0.8531;0.6423;
-160.5000;0.8523;0.6474;
-160.2000;0.8547;0.6549;
-159.9000;0.8523;0.6423;
-159.6000;0.8539;0.6423;
-159.3000;0.8474;0.6272;
-159.0000;0.8523;0.6398;
-158.7000;0.8539;0.6423;
-158.4000;0.8523;0.6449;
-158.1000;0.8547;0.6499;
-157.8000;0.8563;0.6549;
-157.5000;0.8531;0.6474;
-157.2000;0.8555;0.6499;
-156.9000;0.8555;0.6499;
-156.6000;0.8588;0.6499;
-156.3000;0.8531;0.6423;
-156.0000;0.8539;0.6549;
-155.7000;0.8539;0.6600;
-155.4000;0.8547;0.6549;
-155.1000;0.8523;0.6575;
-154.8000;0.8523;0.6575;
-154.5000;0.8547;0.6575;
-154.2000;0.8498;0.6499;
-153.9000;0.8523;0.6650;
-153.6000;0.8531;0.6701;
-153.3000;0.8547;0.6726;
-153.0000;0.8571;0.6701;
-152.7000;0.8580;0.6650;
-152.4000;0.8539;0.6524;
-152.1000;0.8523;0.6524;
-151.8000;0.8547;0.6575;
-151.5000;0.8514;0.6499;
-151.2000;0.8523;0.6549;
-150.9000;0.8531;0.6474;
-150.6000;0.8523;0.6524;
-150.3000;0.8490;0.6474;
-150.0000;0.8531;0.6625;
-149.7000;0.8441;0.6297;
-149.4000;0.8531;0.6575;
-149.1000;0.8531;0.6549;
-148.8000;0.8523;0.6474;
-148.5000;0.8539;0.6499;
-148.2000;0.8539;0.6423;
-147.9000;0.8531;0.6449;
-147.6000;0.8547;0.6499;
-147.3000;0.8555;0.6524;
-147.0000;0.8547;0.6549;
-146.7000;0.8555;0.6625;
-146.4000;0.8555;0.6600;
-146.1000;0.8539;0.6726;
-145.8000;0.8539;0.6701;
-145.5000;0.8539;0.6701;
-145.2000;0.8539;0.6751;
-144.9000;0.8555;0.6701;
-144.6000;0.8523;0.6675;
-144.3000;0.8523;0.6751;
-144.0000;0.8547;0.6726;
-143.7000;0.8539;0.6701;
-143.4000;0.8547;0.6726;
-143.1000;0.8539;0.6726;
-142.8000;0.8547;0.6625;
-142.5000;0.8563;0.6600;
-142.2000;0.8490;0.6373;
-141.9000;0.8547;0.6449;
-141.6000;0.8531;0.6449;
-141.3000;0.8539;0.6474;
-141.0000;0.8539;0.6449;
-140.7000;0.8531;0.6398;
-140.4000;0.8523;0.6499;
-140.1000;0.8523;0.6449;
-139.8000;0.8539;0.6373;
-139.5000;0.8514;0.6348;
-139.2000;0.8539;0.6398;
-138.9000;0.8539;0.6323;
-138.6000;0.8539;0.6297;
-138.3000;0.8523;0.6297;
-138.0000;0.8514;0.6373;
-137.7000;0.8547;0.6423;
-137.4000;0.8539;0.6449;
-137.1000;0.8531;0.6474;
-136.8000;0.8531;0.6373;
-136.5000;0.8539;0.6474;
-136.2000;0.8531;0.6449;
-135.9000;0.8547;0.6499;
-135.6000;0.8523;0.6524;
-135.3000;0.8547;0.6575;
-135.0000;0.8539;0.6524;
-134.7000;0.8563;0.6625;
-134.4000;0.8531;0.6499;
-134.1000;0.8580;0.6575;
-133.8000;0.8571;0.6675;
-133.5000;0.8531;0.6499;
-133.2000;0.8539;0.6524;
-132.9000;0.8563;0.6575;
-132.6000;0.8539;0.6575;
-132.3000;0.8539;0.6524;
-132.0000;0.8531;0.6449;
-131.7000;0.8482;0.6272;
-131.4000;0.8531;0.6373;
-131.1000;0.8547;0.6348;
-130.8000;0.8531;0.6272;
-130.5000;0.8531;0.6348;
-130.2000;0.8547;0.6348;
-129.9000;0.8547;0.6348;
-129.6000;0.8523;0.6297;
-129.3000;0.8531;0.6247;
-129.0000;0.8531;0.6272;
-128.7000;0.8539;0.6297;
-128.4000;0.8539;0.6423;
-128.1000;0.8555;0.6474;
-127.8000;0.8539;0.6373;
-127.5000;0.8490;0.6348;
-127.2000;0.8506;0.6398;
-126.9000;0.8523;0.6423;
-126.6000;0.8539;0.6449;
-126.3000;0.8539;0.6499;
-126.0000;0.8531;0.6524;
-125.7000;0.8539;0.6499;
-125.4000;0.8514;0.6398;
-125.1000;0.8523;0.6423;
-124.8000;0.8539;0.6499;
-124.5000;0.8531;0.6524;
-124.2000;0.8539;0.6423;
-123.9000;0.8514;0.6348;
-123.6000;0.8514;0.6373;
-123.3000;0.8514;0.6524;
-123.0000;0.8539;0.6625;
-122.7000;0.8539;0.6625;
-122.4000;0.8531;0.6600;
-122.1000;0.8514;0.6575;
-121.8000;0.8531;0.6524;
-121.5000;0.8588;0.6675;
-121.2000;0.8531;0.6499;
-120.9000;0.8514;0.6549;
-120.6000;0.8523;0.6575;
-120.3000;0.8498;0.6650;
-120.0000;0.8531;0.6701;
-119.7000;0.8531;0.6726;
-119.4000;0.8466;0.6575;
-119.1000;0.8531;0.6675;
-118.8000;0.8531;0.6600;
-118.5000;0.8563;0.6600;
-118.2000;0.8531;0.6600;
-117.9000;0.8523;0.6625;
-117.6000;0.8531;0.6524;
-117.3000;0.8539;0.6549;
-117.0000;0.8539;0.6625;
-116.7000;0.8523;0.6650;
-116.4000;0.8523;0.6650;
-116.1000;0.8539;0.6701;
-115.8000;0.8531;0.6675;
-115.5000;0.8547;0.6650;
-115.2000;0.8547;0.6625;
-114.9000;0.8531;0.6499;
-114.6000;0.8531;0.6524;
-114.3000;0.8547;0.6625;
-114.0000;0.8531;0.6549;
-113.7000;0.8523;0.6499;
-113.4000;0.8539;0.6524;
-113.1000;0.8523;0.6474;
-112.8000;0.8523;0.6625;
-112.5000;0.8523;0.6650;
-112.2000;0.8547;0.6675;
-111.9000;0.8539;0.6650;
-111.6000;0.8523;0.6600;
-111.3000;0.8523;0.6499;
-111.0000;0.8531;0.6524;
-110.7000;0.8563;0.6575;
-110.4000;0.8523;0.6474;
-110.1000;0.8531;0.6499;
-109.8000;0.8539;0.6474;
-109.5000;0.8514;0.6449;
-109.2000;0.8547;0.6474;
-108.9000;0.8506;0.6348;
-108.6000;0.8514;0.6323;
-108.3000;0.8539;0.6398;
-108.0000;0.8539;0.6348;
-107.7000;0.8531;0.6348;
-107.4000;0.8523;0.6423;
-107.1000;0.8531;0.6373;
-106.8000;0.8563;0.6499;
-106.5000;0.8539;0.6373;
-106.2000;0.8523;0.6297;
-105.9000;0.8547;0.6398;
-105.6000;0.8539;0.6297;
-105.3000;0.8547;0.6348;
-105.0000;0.8596;0.6549;
-104.7000;0.8523;0.6348;
-104.4000;0.8539;0.6348;
-104.1000;0.8531;0.6373;
-103.8000;0.8523;0.6423;
-103.5000;0.8523;0.6474;
-103.2000;0.8539;0.6524;
-102.9000;0.8523;0.6423;
-102.6000;0.8547;0.6449;
-102.3000;0.8498;0.6247;
-102.0000;0.8531;0.6398;
-101.7000;0.8531;0.6449;
-101.4000;0.8514;0.6474;
-101.1000;0.8539;0.6524;
-100.8000;0.8523;0.6474;
-100.5000;0.8539;0.6499;
-100.2000;0.8539;0.6499;
-99.9000;0.8514;0.6474;
-99.6000;0.8506;0.6398;
-99.3000;0.8498;0.6474;
-99.0000;0.8523;0.6600;
-98.7000;0.8514;0.6650;
-98.4000;0.8555;0.6701;
-98.1000;0.8514;0.6575;
-97.8000;0.8514;0.6575;
-97.5000;0.8482;0.6524;
-97.2000;0.8514;0.6549;
-96.9000;0.8555;0.6575;
-96.6000;0.8531;0.6549;
-96.3000;0.8506;0.6524;
-96.0000;0.8523;0.6549;
-95.7000;0.8531;0.6650;
-95.4000;0.8531;0.6701;
-95.1000;0.8539;0.6675;
-94.8000;0.8531;0.6650;
-94.5000;0.8523;0.6575;
-94.2000;0.8498;0.6474;
-93.9000;0.8506;0.6524;
-93.6000;0.8531;0.6499;
-93.3000;0.8547;0.6449;
-93.0000;0.8555;0.6423;
-92.7000;0.8563;0.6499;
-92.4000;0.8523;0.6398;
-92.1000;0.8514;0.6398;
-91.8000;0.8539;0.6575;
-91.5000;0.8539;0.6650;
-91.2000;0.8539;0.6650;
-90.9000;0.8531;0.6575;
-90.6000;0.8531;0.6549;
-90.3000;0.8523;0.6524;
-90.0000;0.8571;0.6650;
-89.7000;0.8514;0.6474;
-89.4000;0.8514;0.6373;
-89.1000;0.8531;0.6449;
-88.8000;0.8531;0.6373;
-88.5000;0.8514;0.6423;
-88.2000;0.8523;0.6423;
-87.9000;0.8514;0.6348;
-87.6000;0.8531;0.6423;
-87.3000;0.8531;0.6423;
-87.0000;0.8514;0.6323;
-86.7000;0.8514;0.6398;
-86.4000;0.8547;0.6524;
-86.1000;0.8506;0.6398;
-85.8000;0.8523;0.6499;
-85.5000;0.8523;0.6524;
-85.2000;0.8523;0.6474;
-84.9000;0.8523;0.6373;
-84.6000;0.8498;0.6348;
-84.3000;0.8506;0.6197;
-84.0000;0.8531;0.6247;
-83.7000;0.8580;0.6423;
-83.4000;0.8531;0.6247;
-83.1000;0.8514;0.6272;
-82.8000;0.8531;0.6272;
-82.5000;0.8580;0.6297;
-82.2000;0.8523;0.6197;
-81.9000;0.8547;0.6272;
-81.6000;0.8531;0.6222;
-81.3000;0.8514;0.6172;
-81.0000;0.8539;0.6272;
-80.7000;0.8531;0.6272;
-80.4000;0.8604;0.6549;
-80.1000;0.8547;0.6297;
-79.8000;0.8539;0.6323;
-79.5000;0.8531;0.6348;
-79.2000;0.8539;0.6348;
-78.9000;0.8547;0.6348;
-78.6000;0.8506;0.6373;
-78.3000;0.8523;0.6474;
-78.0000;0.8514;0.6449;
-77.7000;0.8514;0.6398;
-77.4000;0.8514;0.6398;
-77.1000;0.8531;0.6499;
-76.8000;0.8531;0.6449;
-76.5000;0.8523;0.6549;
-76.2000;0.8474;0.6474;
-75.9000;0.8523;0.6600;
-75.6000;0.8514;0.6549;
-75.3000;0.8555;0.6575;
-75.0000;0.8563;0.6499;
-74.7000;0.8547;0.6423;
-74.4000;0.8514;0.6348;
-74.1000;0.8539;0.6373;
-73.8000;0.8531;0.6398;
-73.5000;0.8506;0.6398;
-73.2000;0.8506;0.6348;
-72.9000;0.8531;0.6474;
-72.6000;0.8539;0.6549;
-72.3000;0.8539;0.6499;
-72.0000;0.8588;0.6524;
-71.7000;0.8539;0.6373;
-71.4000;0.8555;0.6423;
-71.1000;0.8531;0.6398;
-70.8000;0.8523;0.6449;
-70.5000;0.8523;0.6423;
-70.2000;0.8547;0.6499;
-69.9000;0.8547;0.6499;
-69.6000;0.8563;0.6524;
-69.3000;0.8547;0.6474;
-69.0000;0.8539;0.6449;
-68.7000;0.8547;0.6373;
-68.4000;0.8514;0.6348;
-68.1000;0.8506;0.6423;
-67.8000;0.8506;0.6499;
-67.5000;0.8531;0.6600;
-67.2000;0.8531;0.6499;
-66.9000;0.8490;0.6323;
-66.6000;0.8531;0.6423;
-66.3000;0.8514;0.6373;
-66.0000;0.8531;0.6348;
-65.7000;0.8531;0.6247;
-65.4000;0.8539;0.6172;
-65.1000;0.8539;0.6146;
-64.8000;0.8531;0.6096;
-64.5000;0.8506;0.6071;
-64.2000;0.8588;0.6197;
-63.9000;0.8531;0.6046;
-63.6000;0.8531;0.6020;
-63.3000;0.8547;0.6046;
-63.0000;0.8523;0.6046;
-62.7000;0.8531;0.6096;
-62.4000;0.8547;0.6046;
-62.1000;0.8514;0.6071;
-61.8000;0.8563;0.6071;
-61.5000;0.8531;0.6020;
-61.2000;0.8539;0.6096;
-60.9000;0.8539;0.6222;
-60.6000;0.8547;0.6272;
-60.3000;0.8547;0.6323;
-60.0000;0.8547;0.6323;
-59.7000;0.8523;0.6247;
-59.4000;0.8466;0.5995;
-59.1000;0.8539;0.6247;
-58.8000;0.8523;0.6222;
-58.5000;0.8531;0.6272;
-58.2000;0.8539;0.6348;
-57.9000;0.8547;0.6423;
-57.6000;0.8531;0.6449;
-57.3000;0.8523;0.6449;
-57.0000;0.8523;0.6373;
-56.7000;0.8580;0.6549;
-56.4000;0.8531;0.6373;
-56.1000;0.8523;0.6272;
-55.8000;0.8523;0.6272;
-55.5000;0.8531;0.6172;
-55.2000;0.8555;0.6197;
-54.9000;0.8539;0.6096;
-54.6000;0.8531;0.6071;
-54.3000;0.8523;0.6121;
-54.0000;0.8523;0.6121;
-53.7000;0.8539;0.6197;
-53.4000;0.8539;0.6197;
-53.1000;0.8482;0.6197;
-52.8000;0.8523;0.6323;
-52.5000;0.8523;0.6323;
-52.2000;0.8539;0.6373;
-51.9000;0.8523;0.6373;
-51.6000;0.8531;0.6297;
-51.3000;0.8523;0.6272;
-51.0000;0.8523;0.6172;
-50.7000;0.8531;0.6247;
-50.4000;0.8514;0.6272;
-50.1000;0.8514;0.6323;
-49.8000;0.8539;0.6297;
-49.5000;0.8531;0.6272;
-49.2000;0.8580;0.6323;
-48.9000;0.8531;0.6197;
-48.6000;0.8531;0.6096;
-48.3000;0.8547;0.6146;
-48.0000;0.8539;0.6146;
-47.7000;0.8531;0.6146;
-47.4000;0.8514;0.6121;
-47.1000;0.8539;0.6247;
-46.8000;0.8514;0.6172;
-46.5000;0.8531;0.6172;
-46.2000;0.8514;0.6197;
-45.9000;0.8588;0.6323;
-45.6000;0.8539;0.6222;
-45.3000;0.8547;0.6222;
-45.0000;0.8539;0.6272;
-44.7000;0.8555;0.6272;
-44.4000;0.8539;0.6323;
-44.1000;0.8539;0.6297;
-43.8000;0.8531;0.6272;
-43.5000;0.8547;0.6172;
-43.2000;0.8539;0.6121;
-42.9000;0.8531;0.6197;
-42.6000;0.8498;0.6146;
-42.3000;0.8523;0.6146;
-42.0000;0.8523;0.6146;
-41.7000;0.8547;0.6222;
-41.4000;0.8539;0.6297;
-41.1000;0.8539;0.6222;
-40.8000;0.8539;0.6222;
-40.5000;0.8547;0.6297;
-40.2000;0.8506;0.6146;
-39.9000;0.8539;0.6272;
-39.6000;0.8523;0.6247;
-39.3000;0.8514;0.6172;
-39.0000;0.8531;0.6297;
-38.7000;0.8531;0.6272;
-38.4000;0.8539;0.6297;
-38.1000;0.8498;0.6222;
-37.8000;0.8539;0.6297;
-37.5000;0.8498;0.6172;
-37.2000;0.8523;0.6222;
-36.9000;0.8523;0.6247;
-36.6000;0.8539;0.6323;
-36.3000;0.8457;0.6071;
-36.0000;0.8523;0.6247;
-35.7000;0.8514;0.6146;
-35.4000;0.8547;0.6247;
-35.1000;0.8539;0.6146;
-34.8000;0.8523;0.6146;
-34.5000;0.8555;0.6197;
-34.2000;0.8514;0.6121;
-33.9000;0.8523;0.6121;
-33.6000;0.8531;0.6046;
-33.3000;0.8539;0.6146;
-33.0000;0.8514;0.6197;
-32.7000;0.8514;0.6222;
-32.4000;0.8506;0.6096;
-32.1000;0.8514;0.6071;
-31.8000;0.8604;0.6398;
-31.5000;0.8531;0.6146;
-31.2000;0.8539;0.6197;
-30.9000;0.8457;0.5920;
-30.6000;0.8531;0.6146;
-30.3000;0.8547;0.6121;
-30.0000;0.8523;0.6096;
-29.7000;0.8531;0.6121;
-29.4000;0.8514;0.6121;
-29.1000;0.8604;0.6398;
-28.8000;0.8523;0.6172;
-28.5000;0.8506;0.6222;
-28.2000;0.8523;0.6272;
-27.9000;0.8539;0.6373;
-27.6000;0.8523;0.6373;
-27.3000;0.8474;0.6348;
-27.0000;0.8531;0.6423;
-26.7000;0.8539;0.6398;
-26.4000;0.8498;0.6373;
-26.1000;0.8523;0.6373;
-25.8000;0.8531;0.6348;
-25.5000;0.8612;0.6549;
-25.2000;0.8531;0.6323;
-24.9000;0.8571;0.6398;
-24.6000;0.8523;0.6247;
-24.3000;0.8539;0.6323;
-24.0000;0.8514;0.6247;
-23.7000;0.8539;0.6297;
-23.4000;0.8523;0.6247;
-23.1000;0.8514;0.6272;
-22.8000;0.8531;0.6247;
-22.5000;0.8531;0.6222;
-22.2000;0.8523;0.6096;
-21.9000;0.8498;0.5995;
-21.6000;0.8531;0.6146;
-21.3000;0.8539;0.6146;
-21.0000;0.8539;0.6121;
-20.7000;0.8514;0.6146;
-20.4000;0.8539;0.6222;
-20.1000;0.8547;0.6373;
-19.8000;0.8523;0.6398;
-19.5000;0.8531;0.6272;
-19.2000;0.8531;0.6247;
-18.9000;0.8531;0.6297;
-18.6000;0.8514;0.6348;
-18.3000;0.8523;0.6398;
-18.0000;0.8531;0.6499;
-17.7000;0.8498;0.6449;
-17.4000;0.8531;0.6423;
-17.1000;0.8514;0.6348;
-16.8000;0.8555;0.6449;
-16.5000;0.8547;0.6423;
-16.2000;0.8547;0.6348;
-15.9000;0.8531;0.6348;
-15.6000;0.8531;0.6323;
-15.3000;0.8531;0.6348;
-15.0000;0.8531;0.6348;
-14.7000;0.8531;0.6398;
-14.4000;0.8523;0.6323;
-14.1000;0.8588;0.6449;
-13.8000;0.8523;0.6297;
-13.5000;0.8531;0.6348;
-13.2000;0.8523;0.6348;
-12.9000;0.8531;0.6398;
-12.6000;0.8539;0.6474;
-12.3000;0.8539;0.6423;
-12.0000;0.8523;0.6373;
-11.7000;0.8482;0.6323;
-11.4000;0.8514;0.6323;
-11.1000;0.8531;0.6474;
-10.8000;0.8539;0.6499;
-10.5000;0.8539;0.6474;
-10.2000;0.8547;0.6524;
-9.9000;0.8531;0.6474;
-9.6000;0.8547;0.6499;
-9.3000;0.8555;0.6474;
-9.0000;0.8514;0.6499;
-8.7000;0.8441;0.6272;
-8.4000;0.8531;0.6474;
-8.1000;0.8514;0.6449;
-7.8000;0.8539;0.6474;
-7.5000;0.8555;0.6499;
-7.2000;0.8514;0.6423;
-6.9000;0.8531;0.6474;
-6.6000;0.8523;0.6499;
-6.3000;0.8547;0.6575;
-6.0000;0.8531;0.6549;
-5.7000;0.8498;0.6499;
-5.4000;0.8498;0.6549;
-5.1000;0.8531;0.6549;
-4.8000;0.8523;0.6575;
-4.5000;0.8555;0.6726;
-4.2000;0.8531;0.6625;
-3.9000;0.8563;0.6625;
-3.6000;0.8474;0.6423;
-3.3000;0.8482;0.6474;
-3.0000;0.8531;0.6549;
-2.7000;0.8531;0.6499;
-2.4000;0.8523;0.6474;
-2.1000;0.8547;0.6625;
-1.8000;0.8523;0.6524;
-1.5000;0.8531;0.6575;
-1.2000;0.8547;0.6625;
-0.9000;0.8539;0.6575;
-0.6000;0.8514;0.6524;
-0.3000;0.8523;0.6499;
0.0000;0.8523;0.6499;
0.3000;0.8726;0.6474;
0.6000;0.9027;0.6927;
0.9000;0.9288;0.7230;
1.2000;0.9508;0.7557;
1.5000;0.9662;0.7708;
1.8000;0.9776;0.7910;
2.1000;0.9890;0.8187;
2.4000;0.9980;0.8439;
2.7000;1.0045;0.8565;
3.0000;1.0094;0.8691;
3.3000;1.0134;0.8766;
3.6000;1.0175;0.8791;
3.9000;1.0191;0.8766;
4.2000;1.0281;0.8942;
4.5000;1.0289;0.8892;
4.8000;1.0338;0.9043;
5.1000;1.0362;0.9043;
5.4000;1.0346;0.8942;
5.7000;1.0427;0.9094;
6.0000;1.0370;0.8942;
6.3000;1.0476;0.9295;
6.6000;1.0476;0.9270;
6.9000;1.0509;0.9270;
7.2000;1.0525;0.9220;
7.5000;1.0533;0.9194;
7.8000;1.0631;0.9396;
8.1000;1.0590;0.9295;
8.4000;1.0541;0.9144;
8.7000;1.0623;0.9446;
9.0000;1.0647;0.9471;
9.3000;1.0655;0.9497;
9.6000;1.0688;0.9522;
9.9000;1.0680;0.9497;
10.2000;1.0704;0.9522;
10.5000;1.0810;0.9749;
10.8000;1.0745;0.9572;
11.1000;1.0745;0.9597;
11.4000;1.0753;0.9446;
11.7000;1.0753;0.9396;
12.0000;1.0818;0.9446;
12.3000;1.0777;0.9345;
12.6000;1.0794;0.9371;
12.9000;1.0842;0.9421;
13.2000;1.0826;0.9446;
13.5000;1.0834;0.9396;
13.8000;1.0842;0.9295;
14.1000;1.0859;0.9320;
14.4000;1.0867;0.9421;
14.7000;1.0883;0.9345;
15.0000;1.0883;0.9371;
15.3000;1.0875;0.9421;
15.6000;1.0908;0.9497;
15.9000;1.0908;0.9497;
16.2000;1.0916;0.9497;
16.5000;1.0908;0.9471;
16.8000;1.0956;0.9572;
17.1000;1.0965;0.9597;
17.4000;1.0940;0.9497;
17.7000;1.0989;0.9471;
18.0000;1.0965;0.9421;
18.3000;1.0965;0.9446;
18.6000;1.1013;0.9471;
18.9000;1.0981;0.9345;
19.2000;1.1013;0.9320;
19.5000;1.0981;0.9194;
19.8000;1.0997;0.9220;
20.1000;1.1022;0.9396;
20.4000;1.1030;0.9396;
20.7000;1.1046;0.9371;
21.0000;1.1054;0.9371;
21.3000;1.1054;0.9345;
21.6000;1.1054;0.9345;
21.9000;1.1046;0.9320;
22.2000;1.1062;0.9270;
22.5000;1.1062;0.9144;
22.8000;1.1062;0.9220;
23.1000;1.1087;0.9245;
23.4000;1.1070;0.9295;
23.7000;1.1062;0.9194;
24.0000;1.1079;0.9194;
24.3000;1.1079;0.9144;
24.6000;1.1095;0.9119;
24.9000;1.1095;0.9119;
25.2000;1.1079;0.9119;
25.5000;1.1095;0.9194;
25.8000;1.1127;0.9270;
26.1000;1.1103;0.9270;
26.4000;1.1103;0.9245;
26.7000;1.1127;0.9295;
27.0000;1.1127;0.9371;
27.3000;1.1127;0.9371;
27.6000;1.1119;0.9245;
27.9000;1.1038;0.9068;
28.2000;1.1136;0.9270;
28.5000;1.1136;0.9345;
28.8000;1.1127;0.9396;
29.1000;1.1136;0.9497;
29.4000;1.1144;0.9471;
29.7000;1.1168;0.9471;
30.0000;1.1144;0.9421;
30.3000;1.1160;0.9522;
30.6000;1.1144;0.9446;
30.9000;1.1152;0.9396;
31.2000;1.1144;0.9371;
31.5000;1.1136;0.9270;
31.8000;1.1152;0.9345;
32.1000;1.1160;0.9371;
32.4000;1.1193;0.9371;
32.7000;1.1152;0.9194;
33.0000;1.1168;0.9194;
33.3000;1.1209;0.9295;
33.6000;1.1201;0.9371;
33.9000;1.1168;0.9295;
34.2000;1.1193;0.9295;
34.5000;1.1193;0.9220;
34.8000;1.1144;0.9119;
35.1000;1.1184;0.9245;
35.4000;1.1176;0.9295;
35.7000;1.1249;0.9497;
36.0000;1.1274;0.9522;
36.3000;1.1274;0.9547;
36.6000;1.1201;0.9320;
36.9000;1.1217;0.9320;
37.2000;1.1160;0.9194;
37.5000;1.1144;0.9144;
37.8000;1.1193;0.9295;
38.1000;1.1136;0.9094;
38.4000;1.1184;0.9245;
38.7000;1.1193;0.9295;
39.0000;1.1184;0.9295;
39.3000;1.1209;0.9295;
39.6000;1.1209;0.9295;
39.9000;1.1209;0.9295;
40.2000;1.1193;0.9295;
40.5000;1.1184;0.9295;
40.8000;1.1233;0.9396;
41.1000;1.1201;0.9371;
41.4000;1.1201;0.9396;
41.7000;1.1201;0.9522;
42.0000;1.1225;0.9497;
42.3000;1.1225;0.9471;
42.6000;1.1233;0.9421;
42.9000;1.1225;0.9345;
43.2000;1.1201;0.9345;
43.5000;1.1225;0.9345;
43.8000;1.1201;0.9270;
44.1000;1.1217;0.9270;
44.4000;1.1217;0.9345;
44.7000;1.1225;0.9396;
45.0000;1.1209;0.9320;
45.3000;1.1225;0.9371;
45.6000;1.1176;0.9245;
45.9000;1.1217;0.9396;
46.2000;1.1241;0.9345;
46.5000;1.1225;0.9270;
46.8000;1.1249;0.9245;
47.1000;1.1233;0.9169;
47.4000;1.1241;0.9194;
47.7000;1.1225;0.9119;
48.0000;1.1233;0.9094;
48.3000;1.1233;0.9169;
48.6000;1.1225;0.9194;
48.9000;1.1233;0.9245;
49.2000;1.1241;0.9245;
49.5000;1.1225;0.9194;
49.8000;1.1225;0.9245;
50.1000;1.1258;0.9320;
50.4000;1.1233;0.9270;
50.7000;1.1249;0.9295;
51.0000;1.1233;0.9270;
51.3000;1.1249;0.9270;
51.6000;1.1241;0.9270;
51.9000;1.1225;0.9270;
52.2000;1.1233;0.9270;
52.5000;1.1241;0.9220;
52.8000;1.1217;0.9169;
53.1000;1.1241;0.9220;
53.4000;1.1233;0.9245;
53.7000;1.1249;0.9295;
54.0000;1.1241;0.9245;
54.3000;1.1298;0.9295;
54.6000;1.1225;0.9119;
54.9000;1.1225;0.9144;
55.2000;1.1201;0.9144;
55.5000;1.1225;0.9245;
55.8000;1.1225;0.9270;
56.1000;1.1225;0.9220;
56.4000;1.1249;0.9270;
56.7000;1.1339;0.9421;
57.0000;1.1258;0.9169;
57.3000;1.1249;0.9245;
57.6000;1.1258;0.9295;
57.9000;1.1266;0.9270;
58.2000;1.1258;0.9295;
58.5000;1.1266;0.9270;
58.8000;1.1274;0.9295;
59.1000;1.1258;0.9320;
59.4000;1.1266;0.9270;
59.7000;1.1249;0.9220;
60.0000;1.1266;0.9245;
60.3000;1.1266;0.9220;
60.6000;1.1274;0.9270;
60.9000;1.1258;0.9295;
61.2000;1.1249;0.9220;
61.5000;1.1339;0.9446;
61.8000;1.1258;0.9194;
62.1000;1.1241;0.9144;
62.4000;1.1266;0.9119;
62.7000;1.1266;0.9220;
63.0000;1.1258;0.9220;
63.3000;1.1258;0.9194;
63.6000;1.1266;0.9220;
63.9000;1.1266;0.9320;
64.2000;1.1258;0.9245;
64.5000;1.1266;0.9270;
64.8000;1.1282;0.9345;
65.1000;1.1258;0.9169;
65.4000;1.1258;0.9169;
65.7000;1.1249;0.9169;
66.0000;1.1249;0.9144;
66.3000;1.1249;0.9144;
66.6000;1.1225;0.9169;
66.9000;1.1258;0.9295;
67.2000;1.1258;0.9371;
67.5000;1.1274;0.9396;
67.8000;1.1217;0.9270;
68.1000;1.1249;0.9245;
68.4000;1.1274;0.9295;
68.7000;1.1274;0.9295;
69.0000;1.1282;0.9270;
69.3000;1.1266;0.9320;
69.6000;1.1298;0.9421;
69.9000;1.1266;0.9320;
70.2000;1.1274;0.9371;
70.5000;1.1274;0.9345;
70.8000;1.1249;0.9220;
71.1000;1.1315;0.9446;
71.4000;1.1266;0.9345;
71.7000;1.1274;0.9245;
72.0000;1.1266;0.9270;
72.3000;1.1266;0.9320;
72.6000;1.1258;0.9320;
72.9000;1.1290;0.9245;
73.2000;1.1266;0.9270;
73.5000;1.1274;0.9345;
73.8000;1.1274;0.9421;
74.1000;1.1266;0.9345;
74.4000;1.1274;0.9345;
74.7000;1.1249;0.9270;
75.0000;1.1258;0.9220;
75.3000;1.1225;0.9220;
75.6000;1.1258;0.9245;
75.9000;1.1258;0.9245;
76.2000;1.1290;0.9320;
76.5000;1.1258;0.9270;
76.8000;1.1274;0.9421;
77.1000;1.1274;0.9471;
77.4000;1.1258;0.9421;
77.7000;1.1258;0.9396;
78.0000;1.1274;0.9396;
78.3000;1.1241;0.9320;
78.6000;1.1249;0.9320;
78.9000;1.1266;0.9345;
79.2000;1.1233;0.9270;
79.5000;1.1274;0.9371;
79.8000;1.1258;0.9295;
80.1000;1.1258;0.9295;
80.4000;1.1315;0.9421;
80.7000;1.1241;0.9245;
81.0000;1.1266;0.9220;
81.3000;1.1266;0.9245;
81.6000;1.1258;0.9194;
81.9000;1.1274;0.9194;
82.2000;1.1266;0.9295;
82.5000;1.1233;0.9245;
82.8000;1.1266;0.9320;
83.1000;1.1282;0.9371;
83.4000;1.1274;0.9320;
83.7000;1.1225;0.9144;
84.0000;1.1274;0.9270;
84.3000;1.1282;0.9295;
84.6000;1.1233;0.9119;
84.9000;1.1266;0.9144;
85.2000;1.1274;0.9194;
85.5000;1.1274;0.9119;
85.8000;1.1266;0.9094;
86.1000;1.1258;0.8968;
86.4000;1.1241;0.8942;
86.7000;1.1266;0.8993;
87.0000;1.1266;0.9043;
87.3000;1.1282;0.9094;
87.6000;1.1282;0.9194;
87.9000;1.1274;0.9169;
88.2000;1.1274;0.9144;
88.5000;1.1355;0.9345;
88.8000;1.1209;0.8917;
89.1000;1.1274;0.9144;
89.4000;1.1266;0.9119;
89.7000;1.1266;0.9119;
90.0000;1.1266;0.9068;
90.3000;1.1266;0.9119;
90.6000;1.1225;0.8993;
90.9000;1.1274;0.9144;
91.2000;1.1266;0.9144;
91.5000;1.1331;0.9220;
91.8000;1.1282;0.9094;
92.1000;1.1217;0.8993;
92.4000;1.1274;0.9119;
92.7000;1.1274;0.9169;
93.0000;1.1274;0.9270;
93.3000;1.1282;0.9245;
93.6000;1.1217;0.9094;
93.9000;1.1282;0.9396;
94.2000;1.1274;0.9396;
94.5000;1.1282;0.9270;
94.8000;1.1298;0.9371;
95.1000;1.1258;0.9270;
95.4000;1.1266;0.9320;
95.7000;1.1282;0.9371;
96.0000;1.1298;0.9446;
96.3000;1.1282;0.9371;
96.6000;1.1298;0.9396;
96.9000;1.1298;0.9446;
97.2000;1.1306;0.9547;
97.5000;1.1282;0.9471;
97.8000;1.1298;0.9421;
98.1000;1.1274;0.9371;
98.4000;1.1298;0.9396;
98.7000;1.1274;0.9396;
99.0000;1.1298;0.9446;
99.3000;1.1298;0.9345;
99.6000;1.1282;0.9220;
99.9000;1.1282;0.9245;
100.2000;1.1290;0.9194;
100.5000;1.1258;0.9094;
100.8000;1.1298;0.9194;
101.1000;1.1274;0.9119;
101.4000;1.1274;0.9119;
101.7000;1.1266;0.9043;
102.0000;1.1266;0.9119;
102.3000;1.1258;0.9068;
102.6000;1.1274;0.9094;
102.9000;1.1266;0.9094;
103.2000;1.1339;0.9295;
103.5000;1.1249;0.9194;
103.8000;1.1290;0.9295;
104.1000;1.1282;0.9320;
104.4000;1.1396;0.9774;
104.7000;1.1274;0.9497;
105.0000;1.1274;0.9547;
105.3000;1.1266;0.9371;
105.6000;1.1266;0.9270;
105.9000;1.1274;0.9295;
106.2000;1.1274;0.9396;
106.5000;1.1274;0.9345;
106.8000;1.1282;0.9371;
107.1000;1.1306;0.9345;
107.4000;1.1266;0.9194;
107.7000;1.1282;0.9245;
108.0000;1.1266;0.9245;
108.3000;1.1290;0.9220;
108.6000;1.1290;0.9295;
108.9000;1.1282;0.9320;
109.2000;1.1274;0.9345;
109.5000;1.1298;0.9371;
109.8000;1.1266;0.9270;
110.1000;1.1274;0.9320;
110.4000;1.1225;0.9194;
110.7000;1.1266;0.9220;
111.0000;1.1282;0.9220;
111.3000;1.1274;0.9270;
111.6000;1.1306;0.9421;
111.9000;1.1274;0.9320;
112.2000;1.1290;0.9371;
112.5000;1.1266;0.9320;
112.8000;1.1274;0.9320;
113.1000;1.1266;0.9320;
113.4000;1.1282;0.9345;
113.7000;1.1274;0.9270;
114.0000;1.1282;0.9119;
114.3000;1.1233;0.8968;
114.6000;1.1266;0.9068;
114.9000;1.1258;0.9068;
115.2000;1.1274;0.9144;
115.5000;1.1274;0.9119;
115.8000;1.1274;0.9043;
116.1000;1.1274;0.8968;
116.4000;1.1274;0.9043;
116.7000;1.1274;0.9119;
117.0000;1.1266;0.9144;
117.3000;1.1355;0.9295;
117.6000;1.1266;0.9094;
117.9000;1.1274;0.9169;
118.2000;1.1282;0.9169;
118.5000;1.1266;0.9144;
118.8000;1.1298;0.9220;
119.1000;1.1290;0.9245;
119.4000;1.1282;0.9245;
119.7000;1.1266;0.9245;
120.0000;1.1306;0.9320;
120.3000;1.1290;0.9345;
120.6000;1.1274;0.9270;
120.9000;1.1266;0.9220;
121.2000;1.1306;0.9345;
121.5000;1.1274;0.9446;
121.8000;1.1274;0.9371;
122.1000;1.1290;0.9371;
122.4000;1.1274;0.9220;
122.7000;1.1282;0.9220;
123.0000;1.1282;0.9194;
123.3000;1.1258;0.9194;
123.6000;1.1266;0.9194;
123.9000;1.1282;0.9220;
124.2000;1.1290;0.9119;
124.5000;1.1274;0.9068;
124.8000;1.1274;0.9119;
125.1000;1.1282;0.9169;
125.4000;1.1266;0.9144;
125.7000;1.1274;0.9169;
126.0000;1.1266;0.9169;
126.3000;1.1282;0.9270;
126.6000;1.1274;0.9220;
126.9000;1.1266;0.9169;
127.2000;1.1266;0.9295;
127.5000;1.1233;0.9270;
127.8000;1.1266;0.9446;
128.1000;1.1266;0.9421;
128.4000;1.1217;0.9245;
128.7000;1.1266;0.9320;
129.0000;1.1274;0.9320;
129.3000;1.1274;0.9345;
129.6000;1.1193;0.9169;
129.9000;1.1258;0.9320;
130.2000;1.1274;0.9396;
130.5000;1.1315;0.9522;
130.8000;1.1266;0.9345;
131.1000;1.1258;0.9396;
131.4000;1.1274;0.9471;
131.7000;1.1258;0.9345;
132.0000;1.1258;0.9295;
132.3000;1.1258;0.9295;
132.6000;1.1258;0.9320;
132.9000;1.1274;0.9345;
133.2000;1.1249;0.9295;
133.5000;1.1274;0.9270;
133.8000;1.1266;0.9169;
134.1000;1.1282;0.9119;
134.4000;1.1290;0.9144;
134.7000;1.1266;0.9094;
135.0000;1.1274;0.9094;
135.3000;1.1290;0.9094;
135.6000;1.1274;0.9119;
135.9000;1.1266;0.9119;
136.2000;1.1258;0.9119;
136.5000;1.1249;0.9144;
136.8000;1.1225;0.9043;
137.1000;1.1249;0.9144;
137.4000;1.1266;0.9119;
137.7000;1.1282;0.9220;
138.0000;1.1266;0.9194;
138.3000;1.1258;0.9068;
138.6000;1.1249;0.9043;
138.9000;1.1266;0.9068;
139.2000;1.1282;0.9043;
139.5000;1.1266;0.9094;
139.8000;1.1274;0.9068;
140.1000;1.1233;0.8867;
140.4000;1.1282;0.8968;
140.7000;1.1290;0.9018;
141.0000;1.1274;0.9119;
141.3000;1.1266;0.9270;
141.6000;1.1274;0.9270;
141.9000;1.1274;0.9345;
142.2000;1.1274;0.9371;
142.5000;1.1266;0.9446;
142.8000;1.1355;0.9648;
143.1000;1.1274;0.9421;
143.4000;1.1266;0.9421;
143.7000;1.1274;0.9497;
144.0000;1.1266;0.9522;
144.3000;1.1282;0.9497;
144.6000;1.1282;0.9421;
144.9000;1.1225;0.9320;
145.2000;1.1225;0.9320;
145.5000;1.1266;0.9471;
145.8000;1.1315;0.9597;
146.1000;1.1266;0.9572;
146.4000;1.1274;0.9597;
146.7000;1.1249;0.9522;
147.0000;1.1266;0.9471;
147.3000;1.1274;0.9421;
147.6000;1.1258;0.9371;
147.9000;1.1258;0.9295;
148.2000;1.1249;0.9371;
148.5000;1.1266;0.9421;
148.8000;1.1274;0.9396;
149.1000;1.1274;0.9396;
149.4000;1.1258;0.9371;
149.7000;1.1266;0.9421;
150.0000;1.1258;0.9396;
150.3000;1.1241;0.9396;
150.6000;1.1266;0.9471;
150.9000;1.1282;0.9446;
151.2000;1.1266;0.9345;
151.5000;1.1274;0.9320;
151.8000;1.1249;0.9270;
152.1000;1.1266;0.9371;
152.4000;1.1258;0.9371;
152.7000;1.1184;0.9169;
153.0000;1.1249;0.9371;
153.3000;1.1266;0.9446;
153.6000;1.1274;0.9446;
153.9000;1.1258;0.9371;
154.2000;1.1249;0.9295;
154.5000;1.1266;0.9270;
154.8000;1.1258;0.9320;
155.1000;1.1258;0.9396;
155.4000;1.1258;0.9446;
155.7000;1.1258;0.9396;
156.0000;1.1274;0.9396;
156.3000;1.1266;0.9345;
156.6000;1.1266;0.9345;
156.9000;1.1274;0.9371;
157.2000;1.1274;0.9371;
157.5000;1.1274;0.9371;
157.8000;1.1274;0.9371;
158.1000;1.1249;0.9320;
158.4000;1.1282;0.9396;
158.7000;1.1258;0.9345;
159.0000;1.1266;0.9320;
159.3000;1.1298;0.9421;
159.6000;1.1274;0.9371;
159.9000;1.1258;0.9320;
160.2000;1.1249;0.9345;
160.5000;1.1258;0.9345;
160.8000;1.1266;0.9396;
161.1000;1.1258;0.9345;
161.4000;1.1266;0.9371;
161.7000;1.1258;0.9320;
162.0000;1.1249;0.9295;
162.3000;1.1249;0.9270;
162.6000;1.1258;0.9345;
162.9000;1.1266;0.9396;
163.2000;1.1249;0.9421;
163.5000;1.1266;0.9421;
163.8000;1.1282;0.9471;
164.1000;1.1266;0.9471;
164.4000;1.1249;0.9345;
164.7000;1.1282;0.9345;
165.0000;1.1274;0.9396;
165.3000;1.1282;0.9371;
165.6000;1.1258;0.9270;
165.9000;1.1274;0.9345;
166.2000;1.1274;0.9245;
166.5000;1.1266;0.9220;
166.8000;1.1282;0.9220;
167.1000;1.1258;0.9119;
167.4000;1.1266;0.9194;
167.7000;1.1290;0.9245;
168.0000;1.1258;0.9169;
168.3000;1.1249;0.9220;
168.6000;1.1274;0.9345;
168.9000;1.1290;0.9421;
169.2000;1.1266;0.9371;
169.5000;1.1266;0.9371;
169.8000;1.1282;0.9345;
170.1000;1.1266;0.9371;
170.4000;1.1266;0.9345;
170.7000;1.1274;0.9446;
171.0000;1.1266;0.9396;
171.3000;1.1258;0.9371;
171.6000;1.1282;0.9421;
171.9000;1.1266;0.9396;
172.2000;1.1258;0.9471;
172.5000;1.1266;0.9396;
172.8000;1.1258;0.9371;
173.1000;1.1241;0.9295;
173.4000;1.1241;0.9270;
173.7000;1.1258;0.9270;
174.0000;1.1274;0.9245;
174.3000;1.1258;0.9220;
174.6000;1.1258;0.9245;
174.9000;1.1258;0.9245;
175.2000;1.1266;0.9295;
175.5000;1.1298;0.9396;
175.8000;1.1241;0.9270;
176.1000;1.1266;0.9345;
176.4000;1.1258;0.9320;
176.7000;1.1266;0.9371;
177.0000;1.1258;0.9396;
177.3000;1.1241;0.9396;
177.6000;1.1258;0.9421;
177.9000;1.1258;0.9446;
178.2000;1.1258;0.9421;
178.5000;1.1258;0.9320;
178.8000;1.1266;0.9345;
179.1000;1.1274;0.9396;
179.4000;1.1258;0.9396;
179.7000;1.1258;0.9446;
180.0000;1.1266;0.9497;
180.3000;1.1249;0.9421;
180.6000;1.1258;0.9345;
180.9000;1.1266;0.9371;
181.2000;1.1274;0.9396;
181.5000;1.1266;0.9371;
181.8000;1.1225;0.9320;
182.1000;1.1209;0.9270;
182.4000;1.1266;0.9471;
182.7000;1.1339;0.9698;
183.0000;1.1241;0.9471;
183.3000;1.1249;0.9547;
183.6000;1.1241;0.9497;
183.9000;1.1266;0.9471;
184.2000;1.1241;0.9396;
184.5000;1.1258;0.9345;
184.8000;1.1193;0.9119;
185.1000;1.1249;0.9295;
185.4000;1.1258;0.9320;
185.7000;1.1249;0.9345;
186.0000;1.1241;0.9320;
186.3000;1.1249;0.9270;
186.6000;1.1274;0.9320;
186.9000;1.1241;0.9220;
187.2000;1.1241;0.9270;
187.5000;1.1258;0.9320;
187.8000;1.1298;0.9345;
188.1000;1.1249;0.9245;
188.4000;1.1241;0.9169;
188.7000;1.1241;0.9169;
189.0000;1.1274;0.9270;
189.3000;1.1274;0.9245;
189.6000;1.1258;0.9169;
189.9000;1.1266;0.9245;
190.2000;1.1266;0.9371;
190.5000;1.1266;0.9446;
190.8000;1.1249;0.9371;
191.1000;1.1266;0.9421;
191.4000;1.1274;0.9371;
191.7000;1.1274;0.9421;
192.0000;1.1274;0.9396;
192.3000;1.1258;0.9320;
192.6000;1.1249;0.9270;
192.9000;1.1233;0.9320;
193.2000;1.1258;0.9345;
193.5000;1.1241;0.9320;
193.8000;1.1241;0.9371;
194.1000;1.1249;0.9371;
194.4000;1.1249;0.9371;
194.7000;1.1241;0.9371;
195.0000;1.1241;0.9446;
195.3000;1.1249;0.9471;
195.6000;1.1241;0.9471;
195.9000;1.1266;0.9522;
196.2000;1.1258;0.9421;
196.5000;1.1249;0.9396;
196.8000;1.1274;0.9320;
197.1000;1.1258;0.9320;
197.4000;1.1306;0.9522;
197.7000;1.1274;0.9497;
198.0000;1.1258;0.9522;
198.3000;1.1258;0.9522;
198.6000;1.1258;0.9522;
198.9000;1.1258;0.9446;
199.2000;1.1258;0.9446;
199.5000;1.1241;0.9497;
199.8000;1.1258;0.9497;
200.1000;1.1266;0.9497;
200.4000;1.1274;0.9446;
200.7000;1.1290;0.9446;
201.0000;1.1258;0.9421;
201.3000;1.1282;0.9446;
201.6000;1.1249;0.9320;
201.9000;1.1266;0.9295;
202.2000;1.1258;0.9320;
202.5000;1.1266;0.9245;
202.8000;1.1290;0.9295;
203.1000;1.1249;0.9169;
203.4000;1.1258;0.9144;
203.7000;1.1249;0.9194;
204.0000;1.1249;0.9270;
204.3000;1.1258;0.9371;
204.6000;1.1266;0.9345;
204.9000;1.1241;0.9295;
205.2000;1.1249;0.9320;
205.5000;1.1282;0.9446;
205.8000;1.1266;0.9471;
206.1000;1.1217;0.9295;
206.4000;1.1241;0.9245;
206.7000;1.1225;0.9169;
207.0000;1.1274;0.9270;
207.3000;1.1266;0.9320;
207.6000;1.1249;0.9220;
207.9000;1.1274;0.9169;
208.2000;1.1274;0.9169;
208.5000;1.1266;0.9169;
208.8000;1.1249;0.9119;
209.1000;1.1315;0.9295;
209.4000;1.1258;0.9194;
209.7000;1.1241;0.9144;
210.0000;1.1258;0.9194;
210.3000;1.1249;0.9094;
210.6000;1.1249;0.9119;
210.9000;1.1249;0.9194;
211.2000;1.1249;0.9220;
211.5000;1.1266;0.9270;
211.8000;1.1258;0.9295;
212.1000;1.1258;0.9245;
212.4000;1.1258;0.9295;
212.7000;1.1258;0.9345;
213.0000;1.1274;0.9371;
213.3000;1.1266;0.9371;
213.6000;1.1249;0.9245;
213.9000;1.1266;0.9345;
214.2000;1.1266;0.9371;
214.5000;1.1258;0.9320;
214.8000;1.1266;0.9421;
215.1000;1.1249;0.9320;
215.4000;1.1241;0.9371;
215.7000;1.1315;0.9623;
216.0000;1.1241;0.9421;
216.3000;1.1258;0.9320;
216.6000;1.1249;0.9295;
216.9000;1.1249;0.9295;
217.2000;1.1249;0.9320;
217.5000;1.1290;0.9345;
217.8000;1.1249;0.9371;
218.1000;1.1249;0.9345;
218.4000;1.1249;0.9371;
218.7000;1.1249;0.9396;
219.0000;1.1249;0.9371;
219.3000;1.1225;0.9270;
219.6000;1.1249;0.9245;
219.9000;1.1249;0.9295;
220.2000;1.1258;0.9270;
220.5000;1.1241;0.9245;
220.8000;1.1266;0.9320;
221.1000;1.1266;0.9245;
221.4000;1.1266;0.9245;
221.7000;1.1274;0.9220;
222.0000;1.1258;0.9194;
222.3000;1.1315;0.9345;
222.6000;1.1184;0.8993;
222.9000;1.1258;0.9245;
223.2000;1.1258;0.9371;
223.5000;1.1168;0.9169;
223.8000;1.1274;0.9371;
224.1000;1.1249;0.9371;
224.4000;1.1249;0.9270;
224.7000;1.1241;0.9220;
225.0000;1.1266;0.9295;
225.3000;1.1176;0.9068;
225.6000;1.1241;0.9169;
225.9000;1.1233;0.9220;
226.2000;1.1258;0.9245;
226.5000;1.1249;0.9245;
226.8000;1.1241;0.9194;
227.1000;1.1249;0.9270;
227.4000;1.1249;0.9320;
227.7000;1.1249;0.9295;
228.0000;1.1249;0.9270;
228.3000;1.1258;0.9270;
228.6000;1.1282;0.9295;
228.9000;1.1258;0.9270;
229.2000;1.1249;0.9270;
229.5000;1.1241;0.9345;
229.8000;1.1209;0.9270;
230.1000;1.1249;0.9371;
230.4000;1.1233;0.9270;
230.7000;1.1241;0.9295;
231.0000;1.1249;0.9245;
231.3000;1.1249;0.9220;
231.6000;1.1258;0.9220;
231.9000;1.1241;0.9245;
232.2000;1.1233;0.9295;
232.5000;1.1249;0.9270;
232.8000;1.1258;0.9295;
233.1000;1.1233;0.9320;
233.4000;1.1249;0.9295;
233.7000;1.1233;0.9270;
234.0000;1.1233;0.9270;
234.3000;1.1241;0.9270;
234.6000;1.1241;0.9220;
234.9000;1.1217;0.9220;
235.2000;1.1225;0.9295;
235.5000;1.1249;0.9320;
235.8000;1.1233;0.9245;
236.1000;1.1258;0.9245;
236.4000;1.1249;0.9270;
236.7000;1.1249;0.9270;
237.0000;1.1249;0.9270;
237.3000;1.1233;0.9295;
237.6000;1.1249;0.9245;
237.9000;1.1225;0.9119;
238.2000;1.1249;0.9144;
238.5000;1.1209;0.9018;
238.8000;1.1258;0.9094;
239.1000;1.1233;0.9018;
239.4000;1.1233;0.8993;
239.7000;1.1225;0.8993;
240.0000;1.1233;0.9068;
240.3000;1.1241;0.9068;
240.6000;1.1241;0.9094;
240.9000;1.1241;0.9094;
241.2000;1.1209;0.9043;
241.5000;1.1209;0.9144;
241.8000;1.1249;0.9270;
242.1000;1.1249;0.9295;
242.4000;1.1258;0.9270;
242.7000;1.1282;0.9194;
243.0000;1.1258;0.9220;
243.3000;1.1249;0.9169;
243.6000;1.1274;0.9194;
243.9000;1.1274;0.9194;
244.2000;1.1249;0.9220;
244.5000;1.1274;0.9345;
244.8000;1.1241;0.9421;
245.1000;1.1241;0.9446;
245.4000;1.1274;0.9446;
245.7000;1.1233;0.9345;
246.0000;1.1249;0.9270;
246.3000;1.1249;0.9270;
246.6000;1.1266;0.9345;
246.9000;1.1249;0.9295;
247.2000;1.1249;0.9295;
247.5000;1.1266;0.9320;
247.8000;1.1282;0.9345;
248.1000;1.1249;0.9295;
248.4000;1.1233;0.9295;
248.7000;1.1241;0.9270;
249.0000;1.1249;0.9220;
249.3000;1.1233;0.9194;
249.6000;1.1241;0.9169;
249.9000;1.1241;0.9220;
250.2000;1.1249;0.9220;
250.5000;1.1249;0.9220;
250.8000;1.1233;0.9295;
251.1000;1.1233;0.9371;
251.4000;1.1258;0.9446;
251.7000;1.1225;0.9421;
252.0000;1.1249;0.9396;
252.3000;1.1217;0.9345;
252.6000;1.1225;0.9371;
252.9000;1.1233;0.9345;
253.2000;1.1241;0.9245;
253.5000;1.1217;0.9270;
253.8000;1.1217;0.9220;
254.1000;1.1298;0.9371;
254.4000;1.1241;0.9194;
254.7000;1.1249;0.9245;
255.0000;1.1241;0.9245;
255.3000;1.1225;0.9295;
255.6000;1.1225;0.9320;
255.9000;1.1225;0.9295;
256.2000;1.1233;0.9295;
256.5000;1.1258;0.9396;
256.8000;1.1266;0.9446;
257.1000;1.1290;0.9421;
257.4000;1.1282;0.9421;
257.7000;1.1258;0.9345;
258.0000;1.1298;0.9396;
258.3000;1.1233;0.9270;
258.6000;1.1241;0.9295;
258.9000;1.1249;0.9396;
259.2000;1.1241;0.9371;
259.5000;1.1249;0.9320;
259.8000;1.1249;0.9245;
260.1000;1.1249;0.9144;
260.4000;1.1209;0.9018;
260.7000;1.1249;0.9194;
261.0000;1.1233;0.9270;
261.3000;1.1241;0.9295;
261.6000;1.1266;0.9396;
261.9000;1.1258;0.9421;
262.2000;1.1258;0.9446;
262.5000;1.1241;0.9396;
262.8000;1.1241;0.9295;
263.1000;1.1241;0.9295;
263.4000;1.1249;0.9270;
263.7000;1.1266;0.9295;
264.0000;1.1282;0.9345;
264.3000;1.1249;0.9270;
264.6000;1.1201;0.9169;
264.9000;1.1217;0.9169;
265.2000;1.1233;0.9270;
265.5000;1.1241;0.9421;
265.8000;1.1193;0.9345;
266.1000;1.1225;0.9421;
266.4000;1.1225;0.9396;
266.7000;1.1233;0.9320;
267.0000;1.1233;0.9446;
267.3000;1.1201;0.9320;
267.6000;1.1225;0.9320;
267.9000;1.1241;0.9245;
268.2000;1.1258;0.9220;
268.5000;1.1282;0.9320;
268.8000;1.1249;0.9169;
269.1000;1.1266;0.9094;
269.4000;1.1249;0.9119;
269.7000;1.1282;0.9094;
270.0000;1.1258;0.9018;
270.3000;1.1266;0.9068;
270.6000;1.1241;0.9018;
270.9000;1.1241;0.9119;
271.2000;1.1225;0.9144;
271.5000;1.1274;0.9295;
271.8000;1.1249;0.9295;
272.1000;1.1241;0.9320;
272.4000;1.1241;0.9345;
272.7000;1.1225;0.9320;
273.0000;1.1233;0.9320;
273.3000;1.1233;0.9320;
273.6000;1.1241;0.9345;
273.9000;1.1217;0.9245;
274.2000;1.1249;0.9220;
274.5000;1.1249;0.9169;
274.8000;1.1258;0.9169;
275.1000;1.1249;0.9119;
275.4000;1.1225;0.9094;
275.7000;1.1233;0.9094;
276.0000;1.1258;0.9220;
276.3000;1.1209;0.9094;
276.6000;1.1241;0.9169;
276.9000;1.1233;0.9194;
277.2000;1.1241;0.9270;
277.5000;1.1241;0.9320;
277.8000;1.1184;0.9144;
278.1000;1.1249;0.9245;
278.4000;1.1258;0.9295;
278.7000;1.1233;0.9245;
279.0000;1.1258;0.9220;
279.3000;1.1160;0.8993;
279.6000;1.1241;0.9220;
279.9000;1.1266;0.9220;
280.2000;1.1258;0.9194;
280.5000;1.1241;0.9270;
280.8000;1.1249;0.9295;
281.1000;1.1241;0.9320;
281.4000;1.1282;0.9421;
281.7000;1.1249;0.9396;
282.0000;1.1258;0.9320;
282.3000;1.1266;0.9371;
282.6000;1.1274;0.9345;
282.9000;1.1249;0.9295;
283.2000;1.1249;0.9295;
283.5000;1.1241;0.9220;
283.8000;1.1249;0.9220;
284.1000;1.1241;0.9220;
284.4000;1.1233;0.9245;
284.7000;1.1233;0.9345;
285.0000;1.1233;0.9270;
285.3000;1.1233;0.9371;
285.6000;1.1241;0.9320;
285.9000;1.1233;0.9295;
286.2000;1.1225;0.9295;
286.5000;1.1258;0.9396;
286.8000;1.1225;0.9320;
287.1000;1.1241;0.9295;
287.4000;1.1233;0.9345;
287.7000;1.1249;0.9371;
288.0000;1.1241;0.9345;
288.3000;1.1225;0.9345;
288.6000;1.1241;0.9371;
288.9000;1.1233;0.9371;
289.2000;1.1233;0.9446;
289.5000;1.1225;0.9396;
289.8000;1.1233;0.9345;
290.1000;1.1233;0.9270;
290.4000;1.1233;0.9295;
290.7000;1.1233;0.9295;
291.0000;1.1209;0.9194;
291.3000;1.1233;0.9270;
291.6000;1.1241;0.9270;
291.9000;1.1241;0.9245;
292.2000;1.1241;0.9220;
292.5000;1.1266;0.9345;
292.8000;1.1266;0.9345;
293.1000;1.1241;0.9371;
293.4000;1.1184;0.9169;
293.7000;1.1184;0.9144;
294.0000;1.1249;0.9295;
294.3000;1.1241;0.9295;
294.6000;1.1241;0.9220;
294.9000;1.1249;0.9245;
295.2000;1.1241;0.9270;
295.5000;1.1241;0.9245;
295.8000;1.1233;0.9194;
296.1000;1.1233;0.9295;
296.4000;1.1233;0.9245;
296.7000;1.1233;0.9169;
297.0000;1.1241;0.9245;
297.3000;1.1249;0.9220;
297.6000;1.1249;0.9295;
297.9000;1.1217;0.9220;
298.2000;1.1241;0.9270;
298.5000;1.1241;0.9320;
298.8000;1.1290;0.9371;
299.1000;1.1249;0.9270;
299.4000;1.1217;0.9220;
299.7000;1.1233;0.9270;
300.0000;1.1241;0.9320;
300.3000;1.1225;0.9194;
300.6000;1.1290;0.9371;
300.9000;1.1241;0.9220;
301.2000;1.1249;0.9220;
301.5000;1.1233;0.9094;
301.8000;1.1241;0.9144;
302.1000;1.1233;0.9169;
302.4000;1.1249;0.9245;
302.7000;1.1233;0.9270;
303.0000;1.1144;0.9119;
303.3000;1.1233;0.9295;
303.6000;1.1225;0.9371;
303.9000;1.1233;0.9371;
304.2000;1.1225;0.9320;
304.5000;1.1233;0.9245;
304.8000;1.1241;0.9295;
305.1000;1.1241;0.9320;
305.4000;1.1241;0.9295;
305.7000;1.1225;0.9295;
306.0000;1.1249;0.9295;
306.3000;1.1249;0.9295;
306.6000;1.1249;0.9270;
306.9000;1.1193;0.9094;
307.2000;1.1233;0.9295;
307.5000;1.1249;0.9421;
307.8000;1.1233;0.9522;
308.1000;1.1225;0.9522;
308.4000;1.1233;0.9547;
308.7000;1.1241;0.9547;
309.0000;1.1233;0.9547;
309.3000;1.1201;0.9396;
309.6000;1.1217;0.9421;
309.9000;1.1274;0.9471;
310.2000;1.1209;0.9320;
310.5000;1.1201;0.9270;
310.8000;1.1266;0.9446;
311.1000;1.1209;0.9345;
311.4000;1.1217;0.9396;
311.7000;1.1233;0.9471;
312.0000;1.1241;0.9547;
312.3000;1.1225;0.9497;
312.6000;1.1233;0.9547;
312.9000;1.1241;0.9547;
313.2000;1.1241;0.9497;
313.5000;1.1241;0.9371;
313.8000;1.1266;0.9421;
314.1000;1.1241;0.9396;
314.4000;1.1323;0.9673;
314.7000;1.1241;0.9371;
315.0000;1.1241;0.9421;
315.3000;1.1249;0.9421;
315.6000;1.1266;0.9396;
315.9000;1.1233;0.9345;
316.2000;1.1233;0.9320;
316.5000;1.1306;0.9522;
316.8000;1.1217;0.9371;
317.1000;1.1225;0.9396;
317.4000;1.1225;0.9345;
317.7000;1.1274;0.9522;
318.0000;1.1241;0.9471;
318.3000;1.1241;0.9446;
318.6000;1.1225;0.9396;
318.9000;1.1233;0.9471;
319.2000;1.1233;0.9471;
319.5000;1.1233;0.9497;
319.8000;1.1225;0.9446;
320.1000;1.1233;0.9396;
320.4000;1.1241;0.9345;
320.7000;1.1241;0.9295;
321.0000;1.1233;0.9245;
321.3000;1.1217;0.9169;
321.6000;1.1233;0.9194;
321.9000;1.1225;0.9295;
322.2000;1.1233;0.9371;
322.5000;1.1233;0.9421;
322.8000;1.1241;0.9471;
323.1000;1.1233;0.9522;
323.4000;1.1233;0.9497;
323.7000;1.1225;0.9497;
324.0000;1.1241;0.9547;
324.3000;1.1241;0.9648;
324.6000;1.1225;0.9572;
324.9000;1.1225;0.9497;
325.2000;1.1323;0.9723;
325.5000;1.1249;0.9547;
325.8000;1.1233;0.9446;
326.1000;1.1233;0.9421;
326.4000;1.1233;0.9396;
326.7000;1.1233;0.9471;
327.0000;1.1249;0.9547;
327.3000;1.1241;0.9547;
327.6000;1.1258;0.9547;
327.9000;1.1249;0.9572;
328.2000;1.1249;0.9547;
328.5000;1.1266;0.9497;
328.8000;1.1241;0.9497;
329.1000;1.1233;0.9471;
329.4000;1.1258;0.9522;
329.7000;1.1241;0.9446;
330.0000;1.1225;0.9421;
330.3000;1.1225;0.9446;
330.6000;1.1241;0.9522;
330.9000;1.1201;0.9421;
331.2000;1.1225;0.9421;
331.5000;1.1233;0.9371;
331.8000;1.1233;0.9421;
332.1000;1.1241;0.9471;
332.4000;1.1217;0.9396;
332.7000;1.1241;0.9471;
333.0000;1.1225;0.9497;
333.3000;1.1225;0.9471;
333.6000;1.1233;0.9597;
333.9000;1.1233;0.9547;
334.2000;1.1249;0.9547;
334.5000;1.1233;0.9547;
334.8000;1.1225;0.9522;
335.1000;1.1225;0.9572;
335.4000;1.1266;0.9723;
335.7000;1.1225;0.9572;
336.0000;1.1225;0.9522;
336.3000;1.1249;0.9547;
336.6000;1.1217;0.9522;
336.9000;1.1225;0.9522;
337.2000;1.1249;0.9547;
337.5000;1.1225;0.9497;
337.8000;1.1225;0.9497;
338.1000;1.1233;0.9497;
338.4000;1.1233;0.9497;
338.7000;1.1266;0.9623;
339.0000;1.1233;0.9446;
339.3000;1.1298;0.9497;
339.6000;1.1274;0.9396;
339.9000;1.1241;0.9371;
340.2000;1.1241;0.9396;
340.5000;1.1266;0.9471;
340.8000;1.1241;0.9295;
341.1000;1.1241;0.9270;
341.4000;1.1233;0.9295;
341.7000;1.1225;0.9396;
342.0000;1.1225;0.9421;
342.3000;1.1241;0.9471;
342.6000;1.1225;0.9421;
342.9000;1.1217;0.9371;
343.2000;1.1233;0.9371;
343.5000;1.1233;0.9446;
343.8000;1.1233;0.9471;
344.1000;1.1225;0.9421;
344.4000;1.1233;0.9471;
344.7000;1.1225;0.9522;
345.0000;1.1233;0.9421;
345.3000;1.1225;0.9421;
345.6000;1.1225;0.9371;
345.9000;1.1233;0.9421;
346.2000;1.1225;0.9371;
346.5000;1.1233;0.9421;
346.8000;1.1233;0.9497;
347.1000;1.1225;0.9522;
347.4000;1.1233;0.9522;
347.7000;1.1233;0.9522;
348.0000;1.1217;0.9522;
348.3000;1.1225;0.9597;
348.6000;1.1225;0.9648;
348.9000;1.1217;0.9597;
349.2000;1.1241;0.9597;
349.5000;1.1241;0.9497;
349.8000;1.1233;0.9547;
350.1000;1.1249;0.9497;
350.4000;1.1241;0.9522;
350.7000;1.1249;0.9547;
351.0000;1.1225;0.9547;
351.3000;1.1225;0.9572;
351.6000;1.1266;0.9698;
351.9000;1.1241;0.9522;
352.2000;1.1249;0.9497;
352.5000;1.1274;0.9522;
352.8000;1.1241;0.9446;
353.1000;1.1201;0.9345;
353.4000;1.1258;0.9446;
353.7000;1.1249;0.9471;
354.0000;1.1266;0.9497;
354.3000;1.1233;0.9396;
354.6000;1.1225;0.9421;
354.9000;1.1233;0.9497;
355.2000;1.1233;0.9471;
355.5000;1.1233;0.9471;
355.8000;1.1233;0.9446;
356.1000;1.1225;0.9471;
356.4000;1.1201;0.9396;
356.7000;1.1233;0.9471;
357.0000;1.1225;0.9345;
357.3000;1.1217;0.9320;
357.6000;1.1233;0.9421;
357.9000;1.1233;0.9421;
358.2000;1.1225;0.9396;
358.5000;1.1217;0.9421;
358.8000;1.1233;0.9471;
359.1000;1.1233;0.9522;
359.4000;1.1241;0.9547;
359.7000;1.1184;0.9371;
360.0000;1.1241;0.9497;
360.3000;1.1209;0.9471;
360.6000;1.1233;0.9547;
360.9000;1.1201;0.9421;
361.2000;1.1241;0.9547;
361.5000;1.1209;0.9371;
361.8000;1.1233;0.9345;
362.1000;1.1217;0.9270;
362.4000;1.1233;0.9345;
362.7000;1.1241;0.9446;
363.0000;1.1241;0.9295;
363.3000;1.1184;0.9169;
363.6000;1.1249;0.9371;
363.9000;1.1249;0.9345;
364.2000;1.1249;0.9345;
364.5000;1.1241;0.9371;
364.8000;1.1225;0.9371;
365.1000;1.1241;0.9396;
365.4000;1.1258;0.9345;
365.7000;1.1225;0.9345;
366.0000;1.1241;0.9396;
366.3000;1.1241;0.9396;
366.6000;1.1241;0.9471;
366.9000;1.1225;0.9522;
367.2000;1.1249;0.9471;
367.5000;1.1241;0.9471;
367.8000;1.1249;0.9421;
368.1000;1.1225;0.9396;
368.4000;1.1217;0.9345;
368.7000;1.1233;0.9396;
369.0000;1.1233;0.9497;
369.3000;1.1241;0.9497;
369.6000;1.1225;0.9497;
369.9000;1.1217;0.9446;
370.2000;1.1233;0.9572;
370.5000;1.1225;0.9623;
370.8000;1.1225;0.9547;
371.1000;1.1209;0.9446;
371.4000;1.1217;0.9471;
371.7000;1.1217;0.9572;
372.0000;1.1209;0.9547;
372.3000;1.1201;0.9497;
372.6000;1.1217;0.9497;
372.9000;1.1233;0.9547;
373.2000;1.1233;0.9547;
373.5000;1.1217;0.9522;
373.8000;1.1225;0.9522;
374.1000;1.1217;0.9547;
374.4000;1.1233;0.9497;
374.7000;1.1233;0.9396;
375.0000;1.1266;0.9572;
375.3000;1.1233;0.9547;
375.6000;1.1241;0.9547;
375.9000;1.1225;0.9421;
376.2000;1.1201;0.9371;
376.5000;1.1233;0.9497;
376.8000;1.1217;0.9522;
377.1000;1.1225;0.9547;
377.4000;1.1225;0.9547;
377.7000;1.1233;0.9572;
378.0000;1.1217;0.9497;
378.3000;1.1233;0.9572;
378.6000;1.1144;0.9371;
378.9000;1.1225;0.9597;
379.2000;1.1225;0.9597;
379.5000;1.1233;0.9522;
379.8000;1.1233;0.9522;
380.1000;1.1233;0.9497;
380.4000;1.1241;0.9497;
380.7000;1.1233;0.9446;
381.0000;1.1241;0.9547;
381.3000;1.1217;0.9471;
381.6000;1.1217;0.9471;
381.9000;1.1217;0.9471;
382.2000;1.1184;0.9421;
382.5000;1.1217;0.9547;
382.8000;1.1233;0.9522;
383.1000;1.1266;0.9572;
383.4000;1.1225;0.9572;
383.7000;1.1241;0.9623;
384.0000;1.1225;0.9522;
384.3000;1.1233;0.9522;
384.6000;1.1306;0.9723;
384.9000;1.1217;0.9497;
385.2000;1.1217;0.9497;
385.5000;1.1217;0.9547;
385.8000;1.1225;0.9522;
386.1000;1.1209;0.9446;
386.4000;1.1209;0.9446;
386.7000;1.1176;0.9396;
387.0000;1.1282;0.9723;
387.3000;1.1225;0.9648;
387.6000;1.1217;0.9623;
387.9000;1.1233;0.9648;
388.2000;1.1233;0.9623;
388.5000;1.1233;0.9597;
388.8000;1.1233;0.9623;
389.1000;1.1225;0.9723;
389.4000;1.1241;0.9673;
389.7000;1.1225;0.9572;
390.0000;1.1201;0.9522;
390.3000;1.1225;0.9522;
390.6000;1.1241;0.9597;
390.9000;1.1233;0.9597;
391.2000;1.1249;0.9572;
391.5000;1.1225;0.9471;
391.8000;1.1298;0.9572;
392.1000;1.1233;0.9396;
392.4000;1.1241;0.9446;
392.7000;1.1209;0.9446;
393.0000;1.1209;0.9421;
393.3000;1.1241;0.9396;
393.6000;1.1193;0.9270;
393.9000;1.1217;0.9295;
394.2000;1.1249;0.9396;
394.5000;1.1217;0.9320;
394.8000;1.1193;0.9295;
395.1000;1.1225;0.9421;
395.4000;1.1233;0.9421;
395.7000;1.1225;0.9421;
396.0000;1.1233;0.9396;
396.3000;1.1233;0.9345;
396.6000;1.1193;0.9345;
396.9000;1.1241;0.9522;
397.2000;1.1225;0.9421;
397.5000;1.1217;0.9396;
397.8000;1.1233;0.9446;
398.1000;1.1225;0.9421;
398.4000;1.1217;0.9371;
398.7000;1.1217;0.9396;
399.0000;1.1225;0.9345;
399.3000;1.1217;0.9345;
399.6000;1.1176;0.9220;
399.9000;1.1233;0.9345;
400.2000;1.1225;0.9345;
400.5000;1.1225;0.9320;
400.8000;1.1241;0.9295;
401.1000;1.1241;0.9295;
401.4000;1.1233;0.9345;
401.7000;1.1209;0.9245;
402.0000;1.1249;0.9320;
402.3000;1.1225;0.9194;
402.6000;1.1225;0.9270;
402.9000;1.1217;0.9320;
403.2000;1.1209;0.9270;
403.5000;1.1225;0.9220;
403.8000;1.1225;0.9270;
404.1000;1.1217;0.9320;
404.4000;1.1233;0.9345;
404.7000;1.1225;0.9396;
405.0000;1.1217;0.9320;
405.3000;1.1217;0.9345;
405.6000;1.1217;0.9320;
405.9000;1.1209;0.9194;
406.2000;1.1241;0.9245;
406.5000;1.1225;0.9169;
406.8000;1.1201;0.9094;
407.1000;1.1184;0.9043;
407.4000;1.1274;0.9194;
407.7000;1.1217;0.9144;
408.0000;1.1209;0.9094;
408.3000;1.1217;0.9094;
408.6000;1.1209;0.9119;
408.9000;1.1209;0.9220;
409.2000;1.1201;0.9094;
409.5000;1.1233;0.9144;
409.8000;1.1209;0.9194;
410.1000;1.1217;0.9220;
410.4000;1.1217;0.9245;
410.7000;1.1201;0.9220;
411.0000;1.1193;0.9245;
411.3000;1.1241;0.9396;
411.6000;1.1233;0.9320;
411.9000;1.1225;0.9371;
412.2000;1.1225;0.9270;
412.5000;1.1225;0.9245;
412.8000;1.1209;0.9245;
413.1000;1.1209;0.9345;
413.4000;1.1217;0.9270;
413.7000;1.1225;0.9320;
414.0000;1.1282;0.9522;
414.3000;1.1225;0.9345;
414.6000;1.1217;0.9295;
414.9000;1.1225;0.9320;
415.2000;1.1217;0.9320;
415.5000;1.1201;0.9320;
415.8000;1.1209;0.9421;
416.1000;1.1217;0.9396;
416.4000;1.1217;0.9371;
416.7000;1.1201;0.9320;
417.0000;1.1233;0.9421;
417.3000;1.1217;0.9396;
417.6000;1.1225;0.9421;
417.9000;1.1217;0.9295;
418.2000;1.1201;0.9169;
418.5000;1.1233;0.9245;
418.8000;1.1233;0.9270;
419.1000;1.1233;0.9194;
419.4000;1.1233;0.9169;
419.7000;1.1217;0.9169;
420.0000;1.1225;0.9295;
420.3000;1.1225;0.9245;
420.6000;1.1233;0.9169;
420.9000;1.1233;0.9169;
421.2000;1.1168;0.8993;
421.5000;1.1233;0.9194;
421.8000;1.1233;0.9270;
422.1000;1.1225;0.9119;
422.4000;1.1233;0.9094;
422.7000;1.1233;0.9094;
423.0000;1.1209;0.9119;
423.3000;1.1217;0.9068;
423.6000;1.1241;0.9169;
423.9000;1.1217;0.9119;
424.2000;1.1225;0.9094;
424.5000;1.1274;0.9144;
424.8000;1.1225;0.9043;
425.1000;1.1225;0.9068;
425.4000;1.1225;0.9194;
425.7000;1.1201;0.9169;
426.0000;1.1209;0.9144;
426.3000;1.1233;0.9169;
426.6000;1.1217;0.9144;
426.9000;1.1217;0.9094;
427.2000;1.1209;0.9094;
427.5000;1.1225;0.9245;
427.8000;1.1225;0.9220;
428.1000;1.1217;0.9245;
428.4000;1.1184;0.9169;
428.7000;1.1201;0.9270;
429.0000;1.1201;0.9320;
429.3000;1.1184;0.9295;
429.6000;1.1209;0.9345;
429.9000;1.1201;0.9320;
430.2000;1.1193;0.9295;
430.5000;1.1282;0.9497;
430.8000;1.1209;0.9345;
431.1000;1.1201;0.9194;
431.4000;1.1160;0.9094;
431.7000;1.1217;0.9270;
432.0000;1.1217;0.9194;
432.3000;1.1201;0.9144;
432.6000;1.1184;0.9018;
432.9000;1.1258;0.9220;
433.2000;1.1217;0.9169;
433.5000;1.1209;0.9194;
433.8000;1.1233;0.9245;
434.1000;1.1217;0.9194;
434.4000;1.1217;0.9144;
434.7000;1.1217;0.9169;
435.0000;1.1201;0.9094;
435.3000;1.1233;0.9144;
435.6000;1.1233;0.9068;
435.9000;1.1282;0.9119;
436.2000;1.1217;0.8942;
436.5000;1.1217;0.8968;
436.8000;1.1233;0.9018;
437.1000;1.1225;0.8968;
437.4000;1.1184;0.9018;
437.7000;1.1258;0.9144;
438.0000;1.1233;0.9018;
438.3000;1.1209;0.8968;
438.6000;1.1209;0.8968;
438.9000;1.1209;0.8993;
439.2000;1.1217;0.9068;
439.5000;1.1217;0.9094;
439.8000;1.1209;0.9119;
440.1000;1.1209;0.9194;
440.4000;1.1217;0.9194;
440.7000;1.1176;0.9119;
441.0000;1.1217;0.9270;
441.3000;1.1201;0.9245;
441.6000;1.1290;0.9396;
441.9000;1.1217;0.9144;
442.2000;1.1225;0.9144;
442.5000;1.1209;0.9194;
442.8000;1.1217;0.9270;
443.1000;1.1209;0.9295;
443.4000;1.1201;0.9295;
443.7000;1.1201;0.9169;
444.0000;1.1209;0.9169;
444.3000;1.1225;0.9270;
444.6000;1.1258;0.9396;
444.9000;1.1209;0.9245;
445.2000;1.1201;0.9144;
445.5000;1.1217;0.9119;
445.8000;1.1209;0.9169;
446.1000;1.1209;0.9245;
446.4000;1.1217;0.9371;
446.7000;1.1225;0.9421;
447.0000;1.1209;0.9446;
447.3000;1.1209;0.9446;
447.6000;1.1217;0.9320;
447.9000;1.1217;0.9345;
448.2000;1.1233;0.9471;
448.5000;1.1233;0.9547;
448.8000;1.1225;0.9547;
449.1000;1.1241;0.9623;
449.4000;1.1152;0.9421;
449.7000;1.1217;0.9597;
450.0000;1.1193;0.9497;
450.3000;1.1176;0.9471;
450.6000;1.1233;0.9522;
450.9000;1.1225;0.9471;
451.2000;1.1209;0.9522;
451.5000;1.1217;0.9547;
451.8000;1.1217;0.9471;
452.1000;1.1225;0.9471;
452.4000;1.1176;0.9295;
452.7000;1.1225;0.9345;
453.0000;1.1217;0.9371;
453.3000;1.1201;0.9396;
453.6000;1.1217;0.9471;
453.9000;1.1209;0.9497;
454.2000;1.1184;0.9396;
454.5000;1.1282;0.9623;
454.8000;1.1241;0.9497;
455.1000;1.1233;0.9471;
455.4000;1.1184;0.9320;
455.7000;1.1225;0.9421;
456.0000;1.1233;0.9421;
456.3000;1.1290;0.9547;
456.6000;1.1249;0.9471;
456.9000;1.1152;0.9220;
457.2000;1.1209;0.9371;
457.5000;1.1209;0.9345;
457.8000;1.1209;0.9320;
458.1000;1.1225;0.9270;
458.4000;1.1233;0.9320;
458.7000;1.1209;0.9245;
459.0000;1.1209;0.9345;
459.3000;1.1201;0.9345;
459.6000;1.1233;0.9396;
459.9000;1.1217;0.9345;
460.2000;1.1209;0.9245;
460.5000;1.1217;0.9169;
460.8000;1.1217;0.9270;
461.1000;1.1193;0.9245;
461.4000;1.1209;0.9245;
461.7000;1.1225;0.9220;
462.0000;1.1217;0.9245;
462.3000;1.1266;0.9320;
462.6000;1.1209;0.9194;
462.9000;1.1217;0.9169;
463.2000;1.1249;0.9371;
463.5000;1.1233;0.9295;
463.8000;1.1201;0.9094;
464.1000;1.1209;0.9169;
464.4000;1.1217;0.9194;
464.7000;1.1217;0.9169;
465.0000;1.1217;0.9144;
465.3000;1.1217;0.9245;
465.6000;1.1225;0.9295;
465.9000;1.1217;0.9345;
466.2000;1.1233;0.9396;
466.5000;1.1201;0.9245;
466.8000;1.1201;0.9194;
467.1000;1.1209;0.9245;
467.4000;1.1184;0.9144;
467.7000;1.1201;0.9144;
468.0000;1.1217;0.9144;
468.3000;1.1217;0.9094;
468.6000;1.1233;0.9144;
468.9000;1.1209;0.9119;
469.2000;1.1209;0.9220;
469.5000;1.1209;0.9220;
469.8000;1.1233;0.9320;
470.1000;1.1225;0.9371;
470.4000;1.1193;0.9220;
470.7000;1.1225;0.9345;
471.0000;1.1217;0.9320;
471.3000;1.1225;0.9295;
471.6000;1.1201;0.9270;
471.9000;1.1209;0.9320;
472.2000;1.1225;0.9396;
472.5000;1.1217;0.9396;
472.8000;1.1209;0.9396;
473.1000;1.1217;0.9295;
473.4000;1.1225;0.9270;
473.7000;1.1266;0.9396;
474.0000;1.1217;0.9320;
474.3000;1.1258;0.9371;
474.6000;1.1217;0.9320;
474.9000;1.1201;0.9371;
475.2000;1.1217;0.9345;
475.5000;1.1160;0.9295;
475.8000;1.1209;0.9421;
476.1000;1.1225;0.9471;
476.4000;1.1160;0.9396;
476.7000;1.1209;0.9421;
477.0000;1.1201;0.9471;
477.3000;1.1217;0.9572;
477.6000;1.1233;0.9471;
477.9000;1.1225;0.9396;
478.2000;1.1249;0.9446;
478.5000;1.1201;0.9396;
478.8000;1.1209;0.9295;
479.1000;1.1201;0.9295;
479.4000;1.1176;0.9220;
479.7000;1.1184;0.9245;
480.0000;1.1217;0.9295;
480.3000;1.1225;0.9295;
480.6000;1.1209;0.9270;
480.9000;1.1209;0.9270;
481.2000;1.1217;0.9320;
481.5000;1.1209;0.9245;
481.8000;1.1274;0.9371;
482.1000;1.1249;0.9345;
482.4000;1.1217;0.9270;
482.7000;1.1225;0.9270;
483.0000;1.1209;0.9270;
483.3000;1.1209;0.9295;
483.6000;1.1225;0.9295;
483.9000;1.1225;0.9295;
484.2000;1.1217;0.9245;
484.5000;1.1201;0.9194;
484.8000;1.1209;0.9220;
485.1000;1.1225;0.9371;
485.4000;1.1209;0.9371;
485.7000;1.1209;0.9295;
486.0000;1.1209;0.9345;
486.3000;1.1258;0.9497;
486.6000;1.1225;0.9421;
486.9000;1.1209;0.9371;
487.2000;1.1217;0.9371;
487.5000;1.1217;0.9320;
487.8000;1.1225;0.9320;
488.1000;1.1290;0.9522;
488.4000;1.1217;0.9446;
488.7000;1.1233;0.9446;
489.0000;1.1258;0.9547;
489.3000;1.1217;0.9396;
489.6000;1.1209;0.9446;
489.9000;1.1193;0.9320;
490.2000;1.1217;0.9345;
490.5000;1.1217;0.9295;
490.8000;1.1193;0.9220;
491.1000;1.1225;0.9270;
491.4000;1.1217;0.9345;
491.7000;1.1225;0.9295;
492.0000;1.1217;0.9270;
492.3000;1.1193;0.9245;
492.6000;1.1209;0.9396;
492.9000;1.1225;0.9320;
493.2000;1.1217;0.9320;
493.5000;1.1201;0.9295;
493.8000;1.1209;0.9320;
494.1000;1.1217;0.9295;
494.4000;1.1201;0.9194;
494.7000;1.1209;0.9169;
495.0000;1.1201;0.9144;
495.3000;1.1209;0.9220;
495.6000;1.1217;0.9245;
495.9000;1.1201;0.9169;
496.2000;1.1217;0.9194;
496.5000;1.1217;0.9220;
496.8000;1.1225;0.9220;
497.1000;1.1184;0.9094;
497.4000;1.1176;0.9119;
497.7000;1.1209;0.9320;
498.0000;1.1209;0.9295;
498.3000;1.1209;0.9220;
498.6000;1.1201;0.9119;
498.9000;1.1209;0.9094;
499.2000;1.1217;0.9094;
499.5000;1.1209;0.9068;
499.8000;1.1217;0.9068;
500.1000;1.1209;0.9043;
500.4000;1.1201;0.9018;
500.7000;1.1193;0.8917;
501.0000;1.1201;0.8892;
501.3000;1.1209;0.8917;
501.6000;1.1209;0.8942;
501.9000;1.1209;0.8968;
502.2000;1.1209;0.9018;
502.5000;1.1201;0.9043;
502.8000;1.1217;0.9119;
503.1000;1.1209;0.9194;
503.4000;1.1209;0.9320;
503.7000;1.1193;0.9220;
504.0000;1.1209;0.9270;
504.3000;1.1209;0.9194;
504.6000;1.1225;0.9094;
504.9000;1.1209;0.9043;
505.2000;1.1193;0.9119;
505.5000;1.1209;0.9220;
505.8000;1.1217;0.9320;
506.1000;1.1193;0.9295;
506.4000;1.1201;0.9245;
506.7000;1.1209;0.9295;
507.0000;1.1217;0.9169;
507.3000;1.1217;0.9220;
507.6000;1.1193;0.9169;
507.9000;1.1209;0.9169;
508.2000;1.1217;0.9245;
508.5000;1.1201;0.9220;
508.8000;1.1201;0.9194;
509.1000;1.1201;0.9295;
509.4000;1.1209;0.9295;
509.7000;1.1201;0.9295;
510.0000;1.1193;0.9295;
510.3000;1.1193;0.9270;
510.6000;1.1201;0.9245;
510.9000;1.1184;0.9169;
511.2000;1.1160;0.9043;
511.5000;1.1217;0.9169;
511.8000;1.1217;0.9144;
512.1000;1.1193;0.9119;
512.4000;1.1201;0.9068;
512.7000;1.1225;0.9144;
513.0000;1.1233;0.9220;
513.3000;1.1233;0.9270;
513.6000;1.1225;0.9220;
513.9000;1.1233;0.9245;
514.2000;1.1184;0.9144;
514.5000;1.1217;0.9194;
514.8000;1.1225;0.9245;
515.1000;1.1217;0.9220;
515.4000;1.1217;0.9245;
515.7000;1.1217;0.9270;
516.0000;1.1193;0.9245;
516.3000;1.1184;0.9320;
516.6000;1.1193;0.9345;
516.9000;1.1201;0.9345;
517.2000;1.1209;0.9320;
517.5000;1.1193;0.9295;
517.8000;1.1217;0.9371;
518.1000;1.1209;0.9295;
518.4000;1.1209;0.9320;
518.7000;1.1209;0.9396;
519.0000;1.1193;0.9471;
519.3000;1.1209;0.9522;
519.6000;1.1274;0.9648;
519.9000;1.1209;0.9446;
520.2000;1.1193;0.9471;
520.5000;1.1201;0.9497;
520.8000;1.1209;0.9446;
521.1000;1.1209;0.9421;
521.4000;1.1233;0.9446;
521.7000;1.1201;0.9295;
522.0000;1.1225;0.9345;
522.3000;1.1209;0.9345;
522.6000;1.1209;0.9295;
522.9000;1.1209;0.9320;
523.2000;1.1201;0.9320;
523.5000;1.1209;0.9345;
523.8000;1.1201;0.9295;
524.1000;1.1193;0.9345;
524.4000;1.1225;0.9396;
524.7000;1.1209;0.9295;
525.0000;1.1193;0.9194;
525.3000;1.1201;0.9119;
525.6000;1.1176;0.9144;
525.9000;1.1201;0.9144;
526.2000;1.1193;0.9169;
526.5000;1.1193;0.9169;
526.8000;1.1201;0.9194;
527.1000;1.1217;0.9144;
527.4000;1.1201;0.9068;
527.7000;1.1217;0.9144;
528.0000;1.1201;0.9169;
528.3000;1.1193;0.9169;
528.6000;1.1217;0.9169;
528.9000;1.1209;0.9094;
529.2000;1.1193;0.9068;
529.5000;1.1193;0.9094;
529.8000;1.1225;0.9194;
530.1000;1.1217;0.9119;
530.4000;1.1193;0.9068;
530.7000;1.1201;0.9018;
531.0000;1.1193;0.9018;
531.3000;1.1209;0.9068;
531.6000;1.1176;0.9068;
531.9000;1.1201;0.9144;
532.2000;1.1193;0.9169;
532.5000;1.1209;0.9144;
532.8000;1.1201;0.9144;
533.1000;1.1201;0.9220;
533.4000;1.1209;0.9320;
533.7000;1.1217;0.9320;
534.0000;1.1209;0.9345;
534.3000;1.1201;0.9345;
534.6000;1.1201;0.9345;
534.9000;1.1193;0.9245;
535.2000;1.1217;0.9245;
535.5000;1.1209;0.9144;
535.8000;1.1201;0.9144;
536.1000;1.1209;0.9220;
536.4000;1.1217;0.9295;
536.7000;1.1193;0.9144;
537.0000;1.1193;0.9144;
537.3000;1.1225;0.9245;
537.6000;1.1152;0.9094;
537.9000;1.1209;0.9220;
538.2000;1.1209;0.9144;
538.5000;1.1176;0.9119;
538.8000;1.1217;0.9295;
539.1000;1.1201;0.9194;
539.4000;1.1201;0.9270;
539.7000;1.1233;0.9345;
540.0000;1.1209;0.9270;
540.3000;1.1233;0.9245;
540.6000;1.1217;0.9245;
540.9000;1.1225;0.9220;
541.2000;1.1193;0.9043;
541.5000;1.1201;0.9094;
541.8000;1.1201;0.9068;
542.1000;1.1201;0.9043;
542.4000;1.1209;0.9068;
542.7000;1.1201;0.9094;
543.0000;1.1193;0.9094;
543.3000;1.1201;0.9043;
543.6000;1.1209;0.9043;
543.9000;1.1193;0.9018;
544.2000;1.1209;0.9043;
544.5000;1.1209;0.9068;
544.8000;1.1209;0.9068;
545.1000;1.1184;0.8993;
545.4000;1.1282;0.9295;
545.7000;1.1209;0.9119;
546.0000;1.1201;0.9144;
546.3000;1.1193;0.9144;
546.6000;1.1217;0.9245;
546.9000;1.1193;0.9144;
547.2000;1.1217;0.9245;
547.5000;1.1193;0.9144;
547.8000;1.1217;0.9270;
548.1000;1.1193;0.9245;
548.4000;1.1209;0.9295;
548.7000;1.1176;0.9220;
549.0000;1.1201;0.9245;
549.3000;1.1201;0.9320;
549.6000;1.1201;0.9320;
549.9000;1.1201;0.9371;
550.2000;1.1193;0.9345;
550.5000;1.1201;0.9446;
550.8000;1.1193;0.9345;
551.1000;1.1176;0.9270;
551.4000;1.1201;0.9220;
551.7000;1.1193;0.9270;
552.0000;1.1217;0.9320;
552.3000;1.1193;0.9194;
552.6000;1.1209;0.9220;
552.9000;1.1201;0.9295;
553.2000;1.1201;0.9270;
553.5000;1.1176;0.9094;
553.8000;1.1184;0.9245;
554.1000;1.1201;0.9245;
554.4000;1.1193;0.9295;
554.7000;1.1176;0.9169;
555.0000;1.1209;0.9270;
555.3000;1.1209;0.9144;
555.6000;1.1201;0.9119;
555.9000;1.1193;0.9119;
556.2000;1.1193;0.9144;
556.5000;1.1193;0.9094;
556.8000;1.1193;0.9043;
557.1000;1.1193;0.9068;
557.4000;1.1184;0.9094;
557.7000;1.1241;0.9295;
558.0000;1.1209;0.9169;
558.3000;1.1225;0.9119;
558.6000;1.1225;0.9169;
558.9000;1.1201;0.9169;
559.2000;1.1233;0.9245;
559.5000;1.1209;0.9220;
559.8000;1.1201;0.9144;
560.1000;1.1209;0.9119;
560.4000;1.1209;0.9169;
560.7000;1.1225;0.9245;
561.0000;1.1209;0.9194;
561.3000;1.1201;0.9169;
561.6000;1.1217;0.9194;
561.9000;1.1217;0.9220;
562.2000;1.1209;0.9144;
562.5000;1.1201;0.9043;
562.8000;1.1201;0.9043;
563.1000;1.1201;0.9068;
563.4000;1.1184;0.9094;
563.7000;1.1217;0.9194;
564.0000;1.1209;0.9169;
564.3000;1.1201;0.9169;
564.6000;1.1217;0.9245;
564.9000;1.1201;0.9270;
565.2000;1.1193;0.9320;
565.5000;1.1258;0.9446;
565.8000;1.1201;0.9245;
566.1000;1.1217;0.9270;
566.4000;1.1184;0.9245;
566.7000;1.1176;0.9169;
567.0000;1.1184;0.9169;
567.3000;1.1160;0.9094;
567.6000;1.1184;0.9119;
567.9000;1.1201;0.9169;
568.2000;1.1193;0.9119;
568.5000;1.1217;0.9144;
568.8000;1.1201;0.9144;
569.1000;1.1209;0.9194;
569.4000;1.1217;0.9245;
569.7000;1.1209;0.9270;
570.0000;1.1119;0.9144;
570.3000;1.1217;0.9371;
570.6000;1.1225;0.9270;
570.9000;1.1193;0.9119;
571.2000;1.1184;0.9144;
571.5000;1.1176;0.9068;
571.8000;1.1193;0.9194;
572.1000;1.1209;0.9144;
572.4000;1.1209;0.9194;
572.7000;1.1144;0.9043;
573.0000;1.1152;0.9169;
573.3000;1.1201;0.9345;
573.6000;1.1209;0.9220;
573.9000;1.1201;0.9169;
574.2000;1.1201;0.9144;
574.5000;1.1193;0.9094;
574.8000;1.1201;0.9119;
575.1000;1.1193;0.9144;
575.4000;1.1184;0.9144;
575.7000;1.1217;0.9169;
576.0000;1.1193;0.9220;
576.3000;1.1193;0.9295;
576.6000;1.1201;0.9295;
576.9000;1.1201;0.9396;
577.2000;1.1225;0.9396;
577.5000;1.1193;0.9320;
577.8000;1.1193;0.9270;
578.1000;1.1209;0.9371;
578.4000;1.1184;0.9220;
578.7000;1.1193;0.9295;
579.0000;1.1193;0.9194;
579.3000;1.1193;0.9194;
579.6000;1.1201;0.9144;
579.9000;1.1217;0.9144;
580.2000;1.1201;0.9119;
580.5000;1.1209;0.9245;
580.8000;1.1209;0.9245;
581.1000;1.1217;0.9320;
581.4000;1.1201;0.9396;
581.7000;1.1217;0.9446;
582.0000;1.1193;0.9396;
582.3000;1.1217;0.9320;
582.6000;1.1249;0.9371;
582.9000;1.1152;0.9119;
583.2000;1.1249;0.9396;
583.5000;1.1201;0.9270;
583.8000;1.1201;0.9245;
584.1000;1.1193;0.9245;
584.4000;1.1184;0.9220;
584.7000;1.1193;0.9320;
585.0000;1.1209;0.9320;
585.3000;1.1168;0.9245;
585.6000;1.1225;0.9320;
585.9000;1.1282;0.9421;
586.2000;1.1209;0.9270;
586.5000;1.1160;0.9194;
586.8000;1.1193;0.9295;
587.1000;1.1209;0.9345;
587.4000;1.1193;0.9220;
587.7000;1.1193;0.9144;
588.0000;1.1176;0.9043;
588.3000;1.1217;0.9119;
588.6000;1.1193;0.9245;
588.9000;1.1201;0.9295;
589.2000;1.1209;0.9345;
589.5000;1.1201;0.9396;
589.8000;1.1184;0.9320;
590.1000;1.1209;0.9421;
590.4000;1.1168;0.9270;
590.7000;1.1201;0.9169;
591.0000;1.1160;0.9144;
591.3000;1.1184;0.9245;
591.6000;1.1193;0.9245;
591.9000;1.1209;0.9320;
592.2000;1.1193;0.9295;
592.5000;1.1209;0.9345;
592.8000;1.1201;0.9270;
593.1000;1.1184;0.9119;
593.4000;1.1168;0.9068;
593.7000;1.1193;0.9220;
594.0000;1.1193;0.9220;
594.3000;1.1225;0.9295;
594.6000;1.1193;0.9169;
594.9000;1.1193;0.9220;
595.2000;1.1201;0.9270;
595.5000;1.1176;0.9345;
595.8000;1.1176;0.9295;
596.1000;1.1209;0.9270;
596.4000;1.1201;0.9270;
596.7000;1.1193;0.9345;
597.0000;1.1193;0.9345;
597.3000;1.1184;0.9396;
597.6000;1.1201;0.9396;
597.9000;1.1184;0.9270;
598.2000;1.1168;0.9220;
598.5000;1.1201;0.9270;
598.8000;1.1274;0.9421;
599.1000;1.1184;0.9220;
599.4000;1.1184;0.9220;
599.7000;1.1193;0.9245;
600.0000;1.1201;0.9345;
600.3000;1.1193;0.9169;
600.6000;1.1176;0.9018;
600.9000;1.1160;0.8917;
601.2000;1.1062;0.8716;
601.5000;1.0973;0.8539;
601.8000;1.0883;0.8363;
602.1000;1.0786;0.8136;
602.4000;1.0688;0.7985;
602.7000;1.0582;0.7733;
603.0000;1.0509;0.7557;
603.3000;1.0411;0.7456;
603.6000;1.0387;0.7456;
603.9000;1.0370;0.7481;
604.2000;1.0216;0.7154;
604.5000;1.0142;0.6978;
604.8000;1.0094;0.6877;
605.1000;1.0020;0.6776;
605.4000;0.9963;0.6852;
605.7000;0.9963;0.6952;
606.0000;0.9858;0.6776;
606.3000;0.9890;0.6927;
606.6000;0.9752;0.6625;
606.9000;0.9695;0.6499;
607.2000;0.9670;0.6499;
607.5000;0.9613;0.6423;
607.8000;0.9556;0.6297;
608.1000;0.9540;0.6348;
608.4000;0.9483;0.6272;
608.7000;0.9451;0.6348;
609.0000;0.9410;0.6297;
609.3000;0.9369;0.6272;
609.6000;0.9304;0.6172;
609.9000;0.9361;0.6398;
610.2000;0.9271;0.6272;
610.5000;0.9239;0.6197;
610.8000;0.9231;0.6121;
611.1000;0.9149;0.5995;
611.4000;0.9133;0.5945;
611.7000;0.9092;0.5945;
612.0000;0.9076;0.6046;
612.3000;0.9027;0.6071;
612.6000;0.8987;0.5995;
612.9000;0.8970;0.6096;
613.2000;0.9003;0.6197;
613.5000;0.8897;0.5945;
613.8000;0.8897;0.5920;
614.1000;0.8864;0.5894;
614.4000;0.8881;0.6020;
614.7000;0.8791;0.5894;
615.0000;0.8783;0.5945;
615.3000;0.8767;0.6020;
615.6000;0.8718;0.5945;
615.9000;0.8710;0.6020;
616.2000;0.8669;0.5995;
616.5000;0.8669;0.6071;
616.8000;0.8637;0.6020;
617.1000;0.8604;0.6020;
617.4000;0.8596;0.6146;
617.7000;0.8571;0.6247;
618.0000;0.8555;0.6222;
618.3000;0.8506;0.6096;
618.6000;0.8498;0.6121;
618.9000;0.8425;0.6020;
619.2000;0.8457;0.6197;
619.5000;0.8441;0.6172;
619.8000;0.8433;0.6071;
620.1000;0.8392;0.5920;
620.4000;0.8409;0.5945;
620.7000;0.8376;0.5894;
621.0000;0.8327;0.5819;
621.3000;0.8344;0.5869;
621.6000;0.8335;0.5794;
621.9000;0.8303;0.5743;
622.2000;0.8287;0.5668;
622.5000;0.8278;0.5668;
622.8000;0.8230;0.5718;
623.1000;0.8246;0.5869;
623.4000;0.8213;0.5844;
623.7000;0.8205;0.5794;
624.0000;0.8181;0.5743;
624.3000;0.8173;0.5743;
624.6000;0.8181;0.5743;
624.9000;0.8132;0.5617;
625.2000;0.8140;0.5517;
625.5000;0.8140;0.5567;
625.8000;0.8116;0.5643;
626.1000;0.8132;0.5693;
626.4000;0.8091;0.5718;
626.7000;0.8075;0.5743;
627.0000;0.8075;0.5794;
627.3000;0.8034;0.5743;
627.6000;0.8010;0.5794;
627.9000;0.8010;0.5844;
628.2000;0.7937;0.5693;
628.5000;0.7961;0.5794;
628.8000;0.7969;0.5769;
629.1000;0.7961;0.5794;
629.4000;0.7985;0.5844;
629.7000;0.7945;0.5743;
630.0000;0.7928;0.5718;
630.3000;0.7904;0.5693;
630.6000;0.7945;0.5743;
630.9000;0.7945;0.5693;
631.2000;0.7880;0.5592;
631.5000;0.7798;0.5391;
631.8000;0.7782;0.5340;
632.1000;0.7855;0.5617;
632.4000;0.7863;0.5643;
632.7000;0.7839;0.5491;
633.0000;0.7806;0.5517;
633.3000;0.7814;0.5617;
633.6000;0.7757;0.5491;
633.9000;0.7782;0.5567;
634.2000;0.7766;0.5542;
634.5000;0.7757;0.5567;
634.8000;0.7749;0.5567;
635.1000;0.7741;0.5592;
635.4000;0.7749;0.5643;
635.7000;0.7749;0.5592;
636.0000;0.7733;0.5567;
636.3000;0.7709;0.5517;
636.6000;0.7684;0.5441;
636.9000;0.7692;0.5542;
637.2000;0.7700;0.5542;
637.5000;0.7676;0.5491;
637.8000;0.7676;0.5517;
638.1000;0.7643;0.5567;
638.4000;0.7668;0.5718;
638.7000;0.7643;0.5769;
639.0000;0.7619;0.5769;
639.3000;0.7619;0.5819;
639.6000;0.7595;0.5794;
639.9000;0.7619;0.5844;
640.2000;0.7595;0.5844;
640.5000;0.7578;0.5819;
640.8000;0.7578;0.5819;
641.1000;0.7578;0.5819;
641.4000;0.7570;0.5819;
641.7000;0.7538;0.5769;
642.0000;0.7538;0.5743;
642.3000;0.7538;0.5693;
642.6000;0.7530;0.5592;
642.9000;0.7505;0.5592;
643.2000;0.7521;0.5668;
643.5000;0.7521;0.5668;
643.8000;0.7489;0.5718;
644.1000;0.7464;0.5693;
644.4000;0.7497;0.5769;
644.7000;0.7489;0.5693;
645.0000;0.7489;0.5718;
645.3000;0.7456;0.5743;
645.6000;0.7407;0.5592;
645.9000;0.7464;0.5769;
646.2000;0.7473;0.5794;
646.5000;0.7448;0.5743;
646.8000;0.7440;0.5794;
647.1000;0.7424;0.5819;
647.4000;0.7424;0.5769;
647.7000;0.7440;0.5743;
648.0000;0.7416;0.5668;
648.3000;0.7399;0.5617;
648.6000;0.7383;0.5542;
648.9000;0.7416;0.5693;
649.2000;0.7375;0.5592;
649.5000;0.7383;0.5668;
649.8000;0.7359;0.5567;
650.1000;0.7359;0.5617;
650.4000;0.7375;0.5567;
650.7000;0.7342;0.5592;
651.0000;0.7367;0.5668;
651.3000;0.7334;0.5617;
651.6000;0.7350;0.5743;
651.9000;0.7326;0.5794;
652.2000;0.7318;0.5769;
652.5000;0.7326;0.5718;
652.8000;0.7342;0.5743;
653.1000;0.7293;0.5643;
653.4000;0.7293;0.5567;
653.7000;0.7293;0.5517;
654.0000;0.7277;0.5491;
654.3000;0.7277;0.5567;
654.6000;0.7285;0.5617;
654.9000;0.7269;0.5643;
655.2000;0.7269;0.5693;
655.5000;0.7302;0.5819;
655.8000;0.7253;0.5718;
656.1000;0.7261;0.5743;
656.4000;0.7253;0.5718;
656.7000;0.7228;0.5542;
657.0000;0.7245;0.5592;
657.3000;0.7253;0.5693;
657.6000;0.7228;0.5743;
657.9000;0.7236;0.5819;
658.2000;0.7204;0.5794;
658.5000;0.7220;0.5819;
658.8000;0.7212;0.5869;
659.1000;0.7196;0.5769;
659.4000;0.7212;0.5743;
659.7000;0.7236;0.5869;
660.0000;0.7204;0.5743;
660.3000;0.7204;0.5769;
660.6000;0.7179;0.5769;
660.9000;0.7171;0.5794;
661.2000;0.7155;0.5718;
661.5000;0.7163;0.5794;
661.8000;0.7196;0.5920;
662.1000;0.7155;0.5794;
662.4000;0.7171;0.5794;
662.7000;0.7163;0.5643;
663.0000;0.7171;0.5617;
663.3000;0.7155;0.5643;
663.6000;0.7139;0.5668;
663.9000;0.7139;0.5517;
664.2000;0.7196;0.5743;
664.5000;0.7123;0.5517;
664.8000;0.7131;0.5491;
665.1000;0.7131;0.5416;
665.4000;0.7123;0.5491;
665.7000;0.7114;0.5491;
666.0000;0.7098;0.5517;
666.3000;0.7106;0.5542;
666.6000;0.7106;0.5441;
666.9000;0.7090;0.5391;
667.2000;0.7098;0.5416;
667.5000;0.7106;0.5466;
667.8000;0.7082;0.5441;
668.1000;0.7074;0.5491;
668.4000;0.7049;0.5491;
668.7000;0.7057;0.5517;
669.0000;0.7057;0.5517;
669.3000;0.7049;0.5542;
669.6000;0.7057;0.5491;
669.9000;0.7049;0.5391;
670.2000;0.7049;0.5441;
670.5000;0.7049;0.5491;
670.8000;0.7041;0.5466;
671.1000;0.7057;0.5567;
671.4000;0.7033;0.5592;
671.7000;0.7057;0.5693;
672.0000;0.7033;0.5592;
672.3000;0.7041;0.5693;
672.6000;0.7033;0.5794;
672.9000;0.7033;0.5769;
673.2000;0.7009;0.5743;
673.5000;0.7009;0.5794;
673.8000;0.6984;0.5769;
674.1000;0.6984;0.5769;
674.4000;0.6992;0.5718;
674.7000;0.6976;0.5617;
675.0000;0.6976;0.5693;
675.3000;0.7025;0.5769;
675.6000;0.6968;0.5592;
675.9000;0.6943;0.5517;
676.2000;0.6960;0.5592;
676.5000;0.6976;0.5668;
676.8000;0.6976;0.5668;
677.1000;0.6952;0.5643;
677.4000;0.6968;0.5668;
677.7000;0.6903;0.5617;
678.0000;0.6968;0.5668;
678.3000;0.6960;0.5643;
678.6000;0.6952;0.5668;
678.9000;0.6968;0.5769;
679.2000;0.6952;0.5718;
679.5000;0.6960;0.5718;
679.8000;0.6952;0.5743;
680.1000;0.6935;0.5794;
680.4000;0.6927;0.5743;
680.7000;0.6911;0.5693;
681.0000;0.6927;0.5718;
681.3000;0.6927;0.5693;
681.6000;0.6943;0.5643;
681.9000;0.6935;0.5668;
682.2000;0.6903;0.5643;
682.5000;0.6976;0.5894;
682.8000;0.6919;0.5794;
683.1000;0.6911;0.5743;
683.4000;0.6903;0.5693;
683.7000;0.6903;0.5643;
684.0000;0.6895;0.5542;
684.3000;0.6903;0.5643;
684.6000;0.6886;0.5643;
684.9000;0.6862;0.5743;
685.2000;0.6886;0.5794;
685.5000;0.6878;0.5718;
685.8000;0.6878;0.5668;
686.1000;0.6878;0.5668;
686.4000;0.6829;0.5466;
686.7000;0.6878;0.5592;
687.0000;0.6870;0.5517;
687.3000;0.6878;0.5517;
687.6000;0.6862;0.5491;
687.9000;0.6862;0.5592;
688.2000;0.6854;0.5567;
688.5000;0.6854;0.5617;
688.8000;0.6846;0.5668;
689.1000;0.6846;0.5743;
689.4000;0.6854;0.5743;
689.7000;0.6854;0.5643;
690.0000;0.6846;0.5668;
690.3000;0.6829;0.5643;
690.6000;0.6838;0.5718;
690.9000;0.6821;0.5794;
691.2000;0.6829;0.5769;
691.5000;0.6821;0.5743;
691.8000;0.6829;0.5668;
692.1000;0.6821;0.5643;
692.4000;0.6805;0.5542;
692.7000;0.6813;0.5668;
693.0000;0.6805;0.5718;
693.3000;0.6813;0.5794;
693.6000;0.6797;0.5819;
693.9000;0.6789;0.5769;
694.2000;0.6789;0.5743;
694.5000;0.6821;0.5794;
694.8000;0.6781;0.5668;
695.1000;0.6772;0.5592;
695.4000;0.6789;0.5592;
695.7000;0.6789;0.5542;
696.0000;0.6797;0.5617;
696.3000;0.6748;0.5466;
696.6000;0.6781;0.5542;
696.9000;0.6781;0.5517;
697.2000;0.6772;0.5517;
697.5000;0.6756;0.5441;
697.8000;0.6805;0.5542;
698.1000;0.6772;0.5491;
698.4000;0.6789;0.5466;
698.7000;0.6756;0.5340;
699.0000;0.6732;0.5265;
699.3000;0.6740;0.5315;
699.6000;0.6764;0.5315;
699.9000;0.6756;0.5365;
700.2000;0.6764;0.5491;
700.5000;0.6781;0.5491;
700.8000;0.6756;0.5441;
701.1000;0.6732;0.5517;
701.4000;0.6740;0.5466;
701.7000;0.6740;0.5491;
702.0000;0.6756;0.5617;
702.3000;0.6732;0.5617;
702.6000;0.6740;0.5617;
702.9000;0.6740;0.5668;
703.2000;0.6740;0.5567;
703.5000;0.6821;0.5718;
703.8000;0.6781;0.5567;
704.1000;0.6716;0.5441;
704.4000;0.6732;0.5517;
704.7000;0.6756;0.5643;
705.0000;0.6716;0.5542;
705.3000;0.6707;0.5517;
705.6000;0.6724;0.5517;
705.9000;0.6732;0.5668;
706.2000;0.6707;0.5643;
706.5000;0.6724;0.5668;
706.8000;0.6797;0.5869;
707.1000;0.6716;0.5668;
707.4000;0.6707;0.5592;
707.7000;0.6716;0.5542;
708.0000;0.6716;0.5542;
708.3000;0.6699;0.5567;
708.6000;0.6732;0.5668;
708.9000;0.6683;0.5567;
709.2000;0.6675;0.5491;
709.5000;0.6675;0.5517;
709.8000;0.6691;0.5592;
710.1000;0.6691;0.5592;
710.4000;0.6675;0.5617;
710.7000;0.6650;0.5491;
711.0000;0.6675;0.5643;
711.3000;0.6683;0.5617;
711.6000;0.6675;0.5542;
711.9000;0.6667;0.5567;
712.2000;0.6683;0.5643;
712.5000;0.6610;0.5517;
712.8000;0.6667;0.5668;
713.1000;0.6683;0.5718;
713.4000;0.6675;0.5743;
713.7000;0.6724;0.5844;
714.0000;0.6642;0.5693;
714.3000;0.6683;0.5718;
714.6000;0.6610;0.5517;
714.9000;0.6683;0.5718;
715.2000;0.6659;0.5693;
715.5000;0.6667;0.5693;
715.8000;0.6691;0.5743;
716.1000;0.6642;0.5643;
716.4000;0.6650;0.5668;
716.7000;0.6593;0.5517;
717.0000;0.6667;0.5643;
717.3000;0.6659;0.5643;
717.6000;0.6642;0.5542;
717.9000;0.6642;0.5517;
718.2000;0.6618;0.5517;
718.5000;0.6650;0.5567;
718.8000;0.6634;0.5517;
719.1000;0.6642;0.5491;
719.4000;0.6626;0.5517;
719.7000;0.6642;0.5542;
720.0000;0.6610;0.5391;
720.3000;0.6626;0.5491;
720.6000;0.6642;0.5617;
720.9000;0.6634;0.5567;
721.2000;0.6618;0.5643;
721.5000;0.6618;0.5643;
721.8000;0.6675;0.5794;
722.1000;0.6602;0.5617;
722.4000;0.6618;0.5718;
722.7000;0.6610;0.5668;
723.0000;0.6610;0.5743;
723.3000;0.6610;0.5718;
723.6000;0.6618;0.5769;
723.9000;0.6642;0.5844;
724.2000;0.6683;0.5970;
724.5000;0.6545;0.5617;
724.8000;0.6585;0.5743;
725.1000;0.6659;0.5970;
725.4000;0.6585;0.5743;
725.7000;0.6593;0.5769;
726.0000;0.6512;0.5542;
726.3000;0.6593;0.5743;
726.6000;0.6593;0.5743;
726.9000;0.6577;0.5643;
727.2000;0.6585;0.5718;
727.5000;0.6593;0.5643;
727.8000;0.6585;0.5517;
728.1000;0.6610;0.5592;
728.4000;0.6577;0.5491;
728.7000;0.6602;0.5567;
729.0000;0.6593;0.5491;
729.3000;0.6577;0.5517;
729.6000;0.6528;0.5441;
729.9000;0.6577;0.5542;
730.2000;0.6577;0.5617;
730.5000;0.6569;0.5567;
730.8000;0.6569;0.5592;
731.1000;0.6585;0.5592;
731.4000;0.6585;0.5643;
731.7000;0.6569;0.5617;
732.0000;0.6553;0.5668;
732.3000;0.6561;0.5668;
732.6000;0.6569;0.5693;
732.9000;0.6569;0.5643;
733.2000;0.6561;0.5693;
733.5000;0.6553;0.5844;
733.8000;0.6545;0.5819;
734.1000;0.6577;0.5869;
734.4000;0.6561;0.5794;
734.7000;0.6569;0.5718;
735.0000;0.6561;0.5693;
735.3000;0.6545;0.5668;
735.6000;0.6488;0.5592;
735.9000;0.6545;0.5769;
736.2000;0.6536;0.5743;
736.5000;0.6488;0.5592;
736.8000;0.6545;0.5718;
737.1000;0.6528;0.5567;
737.4000;0.6536;0.5567;
737.7000;0.6561;0.5643;
738.0000;0.6545;0.5718;
738.3000;0.6553;0.5769;
738.6000;0.6553;0.5844;
738.9000;0.6561;0.5844;
739.2000;0.6553;0.5718;
739.5000;0.6553;0.5693;
739.8000;0.6455;0.5517;
740.1000;0.6561;0.5769;
740.4000;0.6528;0.5769;
740.7000;0.6528;0.5769;
741.0000;0.6545;0.5769;
741.3000;0.6536;0.5668;
741.6000;0.6520;0.5617;
741.9000;0.6528;0.5693;
742.2000;0.6528;0.5819;
742.5000;0.6536;0.5819;
742.8000;0.6520;0.5718;
743.1000;0.6545;0.5743;
743.4000;0.6520;0.5617;
743.7000;0.6520;0.5542;
744.0000;0.6536;0.5617;
744.3000;0.6520;0.5491;
744.6000;0.6520;0.5517;
744.9000;0.6520;0.5466;
745.2000;0.6488;0.5365;
745.5000;0.6528;0.5491;
745.8000;0.6561;0.5617;
746.1000;0.6471;0.5416;
746.4000;0.6520;0.5567;
746.7000;0.6512;0.5592;
747.0000;0.6471;0.5441;
747.3000;0.6512;0.5491;
747.6000;0.6545;0.5668;
747.9000;0.6504;0.5542;
748.2000;0.6504;0.5517;
748.5000;0.6520;0.5542;
748.8000;0.6496;0.5542;
749.1000;0.6512;0.5592;
749.4000;0.6504;0.5567;
749.7000;0.6496;0.5643;
750.0000;0.6479;0.5592;
750.3000;0.6479;0.5592;
750.6000;0.6479;0.5617;
750.9000;0.6479;0.5592;
751.2000;0.6479;0.5567;
751.5000;0.6496;0.5592;
751.8000;0.6488;0.5617;
752.1000;0.6406;0.5441;
752.4000;0.6488;0.5567;
752.7000;0.6471;0.5517;
753.0000;0.6479;0.5592;
753.3000;0.6528;0.5769;
753.6000;0.6488;0.5643;
753.9000;0.6479;0.5592;
754.2000;0.6496;0.5718;
754.5000;0.6463;0.5668;
754.8000;0.6463;0.5693;
755.1000;0.6471;0.5743;
755.4000;0.6439;0.5617;
755.7000;0.6455;0.5693;
756.0000;0.6471;0.5844;
756.3000;0.6398;0.5617;
756.6000;0.6463;0.5743;
756.9000;0.6471;0.5769;
757.2000;0.6479;0.5743;
757.5000;0.6504;0.5819;
757.8000;0.6471;0.5794;
758.1000;0.6496;0.5819;
758.4000;0.6471;0.5769;
758.7000;0.6414;0.5693;
759.0000;0.6479;0.5844;
759.3000;0.6471;0.5819;
759.6000;0.6455;0.5819;
759.9000;0.6463;0.5869;
760.2000;0.6447;0.5844;
760.5000;0.6471;0.5869;
760.8000;0.6471;0.5844;
761.1000;0.6447;0.5794;
761.4000;0.6455;0.5743;
761.7000;0.6447;0.5693;
762.0000;0.6447;0.5567;
762.3000;0.6463;0.5592;
762.6000;0.6447;0.5668;
762.9000;0.6447;0.5743;
763.2000;0.6455;0.5718;
763.5000;0.6447;0.5592;
763.8000;0.6479;0.5668;
764.1000;0.6447;0.5567;
764.4000;0.6455;0.5668;
764.7000;0.6431;0.5567;
765.0000;0.6439;0.5517;
765.3000;0.6439;0.5491;
765.6000;0.6422;0.5441;
765.9000;0.6479;0.5592;
766.2000;0.6431;0.5517;
766.5000;0.6406;0.5567;
766.8000;0.6488;0.5819;
767.1000;0.6447;0.5718;
767.4000;0.6447;0.5769;
767.7000;0.6390;0.5542;
768.0000;0.6431;0.5567;
768.3000;0.6447;0.5542;
768.6000;0.6455;0.5693;
768.9000;0.6463;0.5743;
769.2000;0.6471;0.5769;
769.5000;0.6374;0.5542;
769.8000;0.6504;0.5894;
770.1000;0.6422;0.5693;
770.4000;0.6439;0.5743;
770.7000;0.6439;0.5743;
771.0000;0.6447;0.5743;
771.3000;0.6431;0.5769;
771.6000;0.6406;0.5617;
771.9000;0.6414;0.5592;
772.2000;0.6439;0.5643;
772.5000;0.6422;0.5718;
772.8000;0.6455;0.5743;
773.1000;0.6431;0.5693;
773.4000;0.6414;0.5668;
773.7000;0.6406;0.5643;
774.0000;0.6479;0.5794;
774.3000;0.6398;0.5542;
774.6000;0.6431;0.5617;
774.9000;0.6422;0.5592;
775.2000;0.6422;0.5491;
775.5000;0.6365;0.5491;
775.8000;0.6398;0.5668;
776.1000;0.6365;0.5517;
776.4000;0.6325;0.5391;
776.7000;0.6422;0.5567;
777.0000;0.6390;0.5441;
777.3000;0.6414;0.5491;
777.6000;0.6422;0.5441;
777.9000;0.6414;0.5441;
778.2000;0.6439;0.5491;
778.5000;0.6406;0.5491;
778.8000;0.6398;0.5466;
779.1000;0.6398;0.5517;
779.4000;0.6406;0.5542;
779.7000;0.6374;0.5491;
780.0000;0.6414;0.5617;
780.3000;0.6365;0.5617;
780.6000;0.6382;0.5693;
780.9000;0.6406;0.5668;
781.2000;0.6414;0.5668;
781.5000;0.6414;0.5743;
781.8000;0.6398;0.5769;
782.1000;0.6406;0.5819;
782.4000;0.6398;0.5794;
782.7000;0.6390;0.5743;
783.0000;0.6390;0.5743;
783.3000;0.6398;0.5819;
783.6000;0.6390;0.5794;
783.9000;0.6414;0.5794;
784.2000;0.6398;0.5718;
784.5000;0.6374;0.5769;
784.8000;0.6390;0.5819;
785.1000;0.6398;0.5894;
785.4000;0.6365;0.5819;
785.7000;0.6390;0.5894;
786.0000;0.6390;0.5920;
786.3000;0.6382;0.5844;
786.6000;0.6382;0.5819;
786.9000;0.6382;0.5769;
787.2000;0.6374;0.5769;
787.5000;0.6333;0.5668;
787.8000;0.6398;0.5794;
788.1000;0.6374;0.5693;
788.4000;0.6374;0.5592;
788.7000;0.6365;0.5491;
789.0000;0.6390;0.5567;
789.3000;0.6390;0.5693;
789.6000;0.6374;0.5668;
789.9000;0.6406;0.5794;
790.2000;0.6365;0.5718;
790.5000;0.6374;0.5718;
790.8000;0.6479;0.5995;
791.1000;0.6357;0.5693;
791.4000;0.6406;0.5769;
791.7000;0.6382;0.5693;
792.0000;0.6357;0.5617;
792.3000;0.6357;0.5592;
792.6000;0.6382;0.5718;
792.9000;0.6349;0.5643;
793.2000;0.6365;0.5643;
793.5000;0.6382;0.5743;
793.8000;0.6398;0.5844;
794.1000;0.6374;0.5894;
794.4000;0.6325;0.5718;
794.7000;0.6365;0.5844;
795.0000;0.6382;0.5769;
795.3000;0.6333;0.5567;
795.6000;0.6357;0.5567;
795.9000;0.6365;0.5617;
796.2000;0.6365;0.5643;
796.5000;0.6365;0.5718;
796.8000;0.6374;0.5668;
797.1000;0.6357;0.5592;
797.4000;0.6390;0.5743;
797.7000;0.6365;0.5743;
798.0000;0.6374;0.5693;
798.3000;0.6365;0.5693;
798.6000;0.6325;0.5693;
798.9000;0.6406;0.5945;
799.2000;0.6374;0.5819;
799.5000;0.6292;0.5668;
799.8000;0.6365;0.5743;
800.1000;0.6374;0.5769;
800.4000;0.6365;0.5617;
800.7000;0.6374;0.5617;
801.0000;0.6357;0.5617;
801.3000;0.6365;0.5592;
801.6000;0.6365;0.5693;
801.9000;0.6349;0.5617;
802.2000;0.6357;0.5643;
802.5000;0.6341;0.5643;
802.8000;0.6349;0.5718;
803.1000;0.6341;0.5794;
803.4000;0.6333;0.5794;
803.7000;0.6349;0.5769;
804.0000;0.6349;0.5794;
804.3000;0.6341;0.5794;
804.6000;0.6357;0.5869;
804.9000;0.6357;0.5844;
805.2000;0.6349;0.5894;
805.5000;0.6317;0.5743;
805.8000;0.6349;0.5769;
806.1000;0.6333;0.5693;
806.4000;0.6333;0.5718;
806.7000;0.6357;0.5819;
807.0000;0.6341;0.5718;
807.3000;0.6333;0.5718;
807.6000;0.6341;0.5819;
807.9000;0.6357;0.5894;
808.2000;0.6357;0.5894;
808.5000;0.6365;0.5894;
808.8000;0.6333;0.5794;
809.1000;0.6349;0.5769;
809.4000;0.6349;0.5743;
809.7000;0.6349;0.5743;
810.0000;0.6341;0.5819;
810.3000;0.6349;0.5794;
810.6000;0.6325;0.5718;
810.9000;0.6325;0.5794;
811.2000;0.6317;0.5693;
811.5000;0.6341;0.5819;
811.8000;0.6325;0.5794;
812.1000;0.6317;0.5794;
812.4000;0.6333;0.5794;
812.7000;0.6333;0.5743;
813.0000;0.6317;0.5592;
813.3000;0.6333;0.5592;
813.6000;0.6325;0.5592;
813.9000;0.6317;0.5617;
814.2000;0.6284;0.5542;
814.5000;0.6317;0.5693;
814.8000;0.6317;0.5693;
815.1000;0.6317;0.5693;
815.4000;0.6309;0.5668;
815.7000;0.6325;0.5643;
816.0000;0.6325;0.5567;
816.3000;0.6309;0.5542;
816.6000;0.6325;0.5542;
816.9000;0.6325;0.5643;
817.2000;0.6309;0.5617;
817.5000;0.6309;0.5617;
817.8000;0.6325;0.5592;
818.1000;0.6300;0.5517;
818.4000;0.6341;0.5617;
818.7000;0.6317;0.5542;
819.0000;0.6325;0.5668;
819.3000;0.6309;0.5617;
819.6000;0.6309;0.5542;
819.9000;0.6300;0.5567;
820.2000;0.6252;0.5542;
820.5000;0.6333;0.5794;
820.8000;0.6284;0.5668;
821.1000;0.6268;0.5592;
821.4000;0.6260;0.5592;
821.7000;0.6292;0.5643;
822.0000;0.6235;0.5491;
822.3000;0.6284;0.5617;
822.6000;0.6300;0.5693;
822.9000;0.6284;0.5643;
823.2000;0.6309;0.5718;
823.5000;0.6309;0.5718;
823.8000;0.6276;0.5743;
824.1000;0.6284;0.5743;
824.4000;0.6300;0.5819;
824.7000;0.6292;0.5794;
825.0000;0.6300;0.5769;
825.3000;0.6292;0.5819;
825.6000;0.6309;0.5844;
825.9000;0.6309;0.5869;
826.2000;0.6309;0.5819;
826.5000;0.6284;0.5769;
826.8000;0.6284;0.5718;
827.1000;0.6309;0.5769;
827.4000;0.6317;0.5769;
827.7000;0.6292;0.5693;
828.0000;0.6284;0.5794;
828.3000;0.6325;0.5819;
828.6000;0.6243;0.5617;
828.9000;0.6268;0.5743;
829.2000;0.6292;0.5743;
829.5000;0.6300;0.5794;
829.8000;0.6309;0.5769;
830.1000;0.6292;0.5743;
830.4000;0.6292;0.5794;
830.7000;0.6292;0.5743;
831.0000;0.6300;0.5894;
831.3000;0.6309;0.5869;
831.6000;0.6300;0.5869;
831.9000;0.6292;0.5844;
832.2000;0.6284;0.5894;
832.5000;0.6300;0.5945;
832.8000;0.6292;0.5945;
833.1000;0.6276;0.5869;
833.4000;0.6292;0.5970;
833.7000;0.6300;0.5995;
834.0000;0.6300;0.5945;
834.3000;0.6268;0.5844;
834.6000;0.6309;0.5945;
834.9000;0.6309;0.5970;
835.2000;0.6276;0.5920;
835.5000;0.6284;0.5945;
835.8000;0.6284;0.5970;
836.1000;0.6284;0.5894;
836.4000;0.6252;0.5794;
836.7000;0.6268;0.5844;
837.0000;0.6260;0.5819;
837.3000;0.6235;0.5743;
837.6000;0.6276;0.5844;
837.9000;0.6309;0.5945;
838.2000;0.6203;0.5743;
838.5000;0.6268;0.5945;
838.8000;0.6268;0.5869;
839.1000;0.6276;0.5844;
839.4000;0.6268;0.5869;
839.7000;0.6268;0.5769;
840.0000;0.6203;0.5668;
840.3000;0.6292;0.5869;
840.6000;0.6276;0.5668;
840.9000;0.6284;0.5668;
841.2000;0.6276;0.5668;
841.5000;0.6284;0.5668;
841.8000;0.6292;0.5769;
842.1000;0.6309;0.5718;
842.4000;0.6276;0.5643;
842.7000;0.6268;0.5668;
843.0000;0.6227;0.5542;
843.3000;0.6276;0.5668;
843.6000;0.6252;0.5517;
843.9000;0.6211;0.5340;
844.2000;0.6252;0.5567;
844.5000;0.6276;0.5668;
844.8000;0.6252;0.5542;
845.1000;0.6276;0.5668;
845.4000;0.6309;0.5743;
845.7000;0.6260;0.5542;
846.0000;0.6276;0.5567;
846.3000;0.6268;0.5617;
846.6000;0.6276;0.5491;
846.9000;0.6268;0.5517;
847.2000;0.6252;0.5491;
847.5000;0.6252;0.5517;
847.8000;0.6268;0.5542;
848.1000;0.6260;0.5517;
848.4000;0.6252;0.5517;
848.7000;0.6260;0.5567;
849.0000;0.6252;0.5491;
849.3000;0.6260;0.5441;
849.6000;0.6243;0.5365;
849.9000;0.6268;0.5491;
850.2000;0.6252;0.5517;
850.5000;0.6260;0.5643;
850.8000;0.6317;0.5743;
851.1000;0.6268;0.5693;
851.4000;0.6260;0.5693;
851.7000;0.6252;0.5693;
852.0000;0.6252;0.5693;
852.3000;0.6252;0.5643;
852.6000;0.6227;0.5592;
852.9000;0.6252;0.5592;
853.2000;0.6260;0.5517;
853.5000;0.6260;0.5517;
853.8000;0.6252;0.5542;
854.1000;0.6252;0.5567;
854.4000;0.6243;0.5567;
854.7000;0.6260;0.5491;
855.0000;0.6243;0.5340;
855.3000;0.6260;0.5365;
855.6000;0.6252;0.5265;
855.9000;0.6235;0.5240;
856.2000;0.6260;0.5315;
856.5000;0.6252;0.5365;
856.8000;0.6252;0.5391;
857.1000;0.6252;0.5441;
857.4000;0.6252;0.5491;
857.7000;0.6211;0.5365;
858.0000;0.6260;0.5491;
858.3000;0.6235;0.5466;
858.6000;0.6243;0.5466;
858.9000;0.6252;0.5517;
859.2000;0.6252;0.5441;
859.5000;0.6235;0.5391;
859.8000;0.6235;0.5315;
860.1000;0.6252;0.5315;
860.4000;0.6243;0.5365;
860.7000;0.6243;0.5365;
861.0000;0.6243;0.5391;
861.3000;0.6243;0.5416;
861.6000;0.6252;0.5340;
861.9000;0.6252;0.5441;
862.2000;0.6268;0.5416;
862.5000;0.6227;0.5365;
862.8000;0.6243;0.5517;
863.1000;0.6235;0.5542;
863.4000;0.6227;0.5466;
863.7000;0.6227;0.5365;
864.0000;0.6243;0.5340;
864.3000;0.6203;0.5240;
864.6000;0.6243;0.5315;
864.9000;0.6243;0.5365;
865.2000;0.6235;0.5365;
865.5000;0.6252;0.5391;
865.8000;0.6235;0.5391;
866.1000;0.6227;0.5365;
866.4000;0.6227;0.5391;
866.7000;0.6235;0.5441;
867.0000;0.6252;0.5517;
867.3000;0.6235;0.5517;
867.6000;0.6252;0.5643;
867.9000;0.6235;0.5668;
868.2000;0.6235;0.5718;
868.5000;0.6235;0.5693;
868.8000;0.6219;0.5693;
869.1000;0.6162;0.5441;
869.4000;0.6227;0.5617;
869.7000;0.6227;0.5643;
870.0000;0.6227;0.5617;
870.3000;0.6227;0.5567;
870.6000;0.6186;0.5441;
870.9000;0.6211;0.5542;
871.2000;0.6219;0.5517;
871.5000;0.6252;0.5617;
871.8000;0.6252;0.5567;
872.1000;0.6243;0.5592;
872.4000;0.6227;0.5542;
872.7000;0.6219;0.5617;
873.0000;0.6235;0.5693;
873.3000;0.6219;0.5668;
873.6000;0.6227;0.5617;
873.9000;0.6219;0.5643;
874.2000;0.6219;0.5743;
874.5000;0.6227;0.5668;
874.8000;0.6268;0.5693;
875.1000;0.6235;0.5567;
875.4000;0.6227;0.5542;
875.7000;0.6284;0.5668;
876.0000;0.6219;0.5491;
876.3000;0.6203;0.5491;
876.6000;0.6219;0.5542;
876.9000;0.6219;0.5517;
877.2000;0.6203;0.5491;
877.5000;0.6211;0.5491;
877.8000;0.6195;0.5441;
878.1000;0.6219;0.5491;
878.4000;0.6203;0.5466;
878.7000;0.6203;0.5491;
879.0000;0.6219;0.5491;
879.3000;0.6219;0.5542;
879.6000;0.6211;0.5466;
879.9000;0.6211;0.5542;
880.2000;0.6211;0.5491;
880.5000;0.6227;0.5542;
880.8000;0.6219;0.5491;
881.1000;0.6195;0.5466;
881.4000;0.6203;0.5517;
881.7000;0.6219;0.5441;
882.0000;0.6195;0.5517;
882.3000;0.6219;0.5668;
882.6000;0.6227;0.5718;
882.9000;0.6211;0.5668;
883.2000;0.6227;0.5718;
883.5000;0.6235;0.5743;
883.8000;0.6203;0.5668;
884.1000;0.6203;0.5743;
884.4000;0.6211;0.5743;
884.7000;0.6203;0.5718;
885.0000;0.6219;0.5643;
885.3000;0.6203;0.5592;
885.6000;0.6268;0.5617;
885.9000;0.6219;0.5491;
886.2000;0.6227;0.5441;
886.5000;0.6243;0.5441;
886.8000;0.6211;0.5491;
887.1000;0.6243;0.5643;
887.4000;0.6178;0.5567;
887.7000;0.6203;0.5617;
888.0000;0.6138;0.5391;
888.3000;0.6219;0.5542;
888.6000;0.6211;0.5466;
888.9000;0.6211;0.5517;
889.2000;0.6203;0.5466;
889.5000;0.6195;0.5441;
889.8000;0.6211;0.5491;
890.1000;0.6203;0.5416;
890.4000;0.6252;0.5617;
890.7000;0.6203;0.5542;
891.0000;0.6219;0.5668;
891.3000;0.6219;0.5592;
891.6000;0.6170;0.5517;
891.9000;0.6219;0.5743;
892.2000;0.6227;0.5743;
892.5000;0.6211;0.5693;
892.8000;0.6186;0.5693;
893.1000;0.6195;0.5718;
893.4000;0.6211;0.5743;
893.7000;0.6227;0.5718;
894.0000;0.6211;0.5668;
894.3000;0.6203;0.5668;
894.6000;0.6211;0.5718;
894.9000;0.6219;0.5693;
895.2000;0.6211;0.5643;
895.5000;0.6211;0.5542;
895.8000;0.6203;0.5592;
896.1000;0.6227;0.5567;
896.4000;0.6203;0.5491;
896.7000;0.6211;0.5542;
897.0000;0.6195;0.5592;
897.3000;0.6195;0.5517;
897.6000;0.6203;0.5567;
897.9000;0.6186;0.5617;
898.2000;0.6211;0.5643;
898.5000;0.6211;0.5592;
898.8000;0.6195;0.5643;
899.1000;0.6186;0.5718;
899.4000;0.6195;0.5693;
899.7000;0.6195;0.5718;
900.0000;0.6227;0.5769;
900.3000;0.6203;0.5794;
900.6000;0.6195;0.5794;
900.9000;0.6211;0.5743;
901.2000;0.6203;0.5693;
901.5000;0.6154;0.5466;
901.8000;0.6203;0.5617;
902.1000;0.6203;0.5517;
902.4000;0.6203;0.5567;
902.7000;0.6195;0.5567;
903.0000;0.6186;0.5643;
903.3000;0.6186;0.5668;
903.6000;0.6195;0.5643;
903.9000;0.6162;0.5542;
904.2000;0.6162;0.5567;
904.5000;0.6170;0.5668;
904.8000;0.6203;0.5668;
905.1000;0.6195;0.5643;
905.4000;0.6178;0.5643;
905.7000;0.6186;0.5643;
906.0000;0.6162;0.5643;
906.3000;0.6203;0.5718;
906.6000;0.6186;0.5769;
906.9000;0.6178;0.5743;
907.2000;0.6219;0.5844;
907.5000;0.6195;0.5794;
907.8000;0.6186;0.5794;
908.1000;0.6227;0.5894;
908.4000;0.6195;0.5844;
908.7000;0.6195;0.5869;
909.0000;0.6195;0.5869;
909.3000;0.6170;0.5819;
909.6000;0.6186;0.5844;
909.9000;0.6186;0.5894;
910.2000;0.6195;0.5743;
910.5000;0.6129;0.5542;
910.8000;0.6170;0.5617;
911.1000;0.6129;0.5441;
911.4000;0.6178;0.5693;
911.7000;0.6186;0.5693;
912.0000;0.6227;0.5844;
912.3000;0.6203;0.5844;
912.6000;0.6195;0.5794;
912.9000;0.6186;0.5844;
913.2000;0.6178;0.5869;
913.5000;0.6170;0.5844;
913.8000;0.6195;0.5769;
914.1000;0.6195;0.5819;
914.4000;0.6195;0.5794;
914.7000;0.6170;0.5743;
915.0000;0.6170;0.5693;
915.3000;0.6178;0.5769;
915.6000;0.6154;0.5794;
915.9000;0.6170;0.5819;
916.2000;0.6170;0.5743;
916.5000;0.6186;0.5769;
916.8000;0.6170;0.5743;
917.1000;0.6178;0.5718;
917.4000;0.6170;0.5718;
917.7000;0.6178;0.5693;
918.0000;0.6219;0.5794;
918.3000;0.6178;0.5668;
918.6000;0.6186;0.5718;
918.9000;0.6195;0.5693;
919.2000;0.6170;0.5617;
919.5000;0.6178;0.5517;
919.8000;0.6162;0.5567;
920.1000;0.6170;0.5668;
920.4000;0.6186;0.5668;
920.7000;0.6178;0.5718;
921.0000;0.6170;0.5743;
921.3000;0.6170;0.5693;
921.6000;0.6195;0.5693;
921.9000;0.6170;0.5567;
922.2000;0.6178;0.5567;
922.5000;0.6170;0.5567;
922.8000;0.6203;0.5718;
923.1000;0.6178;0.5668;
923.4000;0.6195;0.5743;
923.7000;0.6186;0.5718;
924.0000;0.6186;0.5668;
924.3000;0.6146;0.5668;
924.6000;0.6170;0.5668;
924.9000;0.6178;0.5693;
925.2000;0.6178;0.5769;
925.5000;0.6178;0.5769;
925.8000;0.6170;0.5743;
926.1000;0.6154;0.5743;
926.4000;0.6178;0.5794;
926.7000;0.6186;0.5794;
927.0000;0.6170;0.5769;
927.3000;0.6186;0.5718;
927.6000;0.6162;0.5643;
927.9000;0.6186;0.5794;
928.2000;0.6170;0.5718;
928.5000;0.6170;0.5844;
928.8000;0.6178;0.5970;
929.1000;0.6178;0.6046;
929.4000;0.6219;0.6146;
929.7000;0.6170;0.5970;
930.0000;0.6178;0.5920;
930.3000;0.6195;0.5970;
930.6000;0.6178;0.5920;
930.9000;0.6170;0.5894;
931.2000;0.6162;0.5894;
931.5000;0.6146;0.5794;
931.8000;0.6178;0.5844;
932.1000;0.6138;0.5794;
932.4000;0.6170;0.5894;
932.7000;0.6162;0.5894;
933.0000;0.6170;0.5945;
933.3000;0.6162;0.5970;
933.6000;0.6162;0.5970;
933.9000;0.6170;0.5970;
934.2000;0.6203;0.6020;
934.5000;0.6203;0.5920;
934.8000;0.6154;0.5794;
935.1000;0.6170;0.5794;
935.4000;0.6252;0.6071;
935.7000;0.6170;0.5920;
936.0000;0.6178;0.5920;
936.3000;0.6170;0.5995;
936.6000;0.6178;0.5995;
936.9000;0.6178;0.5970;
937.2000;0.6170;0.5945;
937.5000;0.6170;0.5869;
937.8000;0.6178;0.5894;
938.1000;0.6178;0.5995;
938.4000;0.6162;0.5970;
938.7000;0.6162;0.5995;
939.0000;0.6186;0.6046;
939.3000;0.6195;0.6096;
939.6000;0.6154;0.6020;
939.9000;0.6138;0.5995;
940.2000;0.6146;0.6096;
940.5000;0.6170;0.6096;
940.8000;0.6154;0.5970;
941.1000;0.6162;0.6020;
941.4000;0.6138;0.5970;
941.7000;0.6154;0.5945;
942.0000;0.6162;0.5920;
942.3000;0.6146;0.5894;
942.6000;0.6154;0.5869;
942.9000;0.6154;0.5869;
943.2000;0.6162;0.5819;
943.5000;0.6146;0.5794;
943.8000;0.6146;0.5794;
944.1000;0.6146;0.5869;
944.4000;0.6121;0.5819;
944.7000;0.6146;0.5970;
945.0000;0.6154;0.5920;
945.3000;0.6146;0.5945;
945.6000;0.6138;0.6020;
945.9000;0.6162;0.5995;
946.2000;0.6129;0.5945;
946.5000;0.6154;0.5995;
946.8000;0.6138;0.5920;
947.1000;0.6154;0.5970;
947.4000;0.6146;0.5995;
947.7000;0.6146;0.5920;
948.0000;0.6129;0.5718;
948.3000;0.6195;0.5794;
948.6000;0.6186;0.5819;
948.9000;0.6162;0.5869;
949.2000;0.6195;0.5995;
949.5000;0.6170;0.5920;
949.8000;0.6146;0.5869;
950.1000;0.6138;0.5894;
950.4000;0.6138;0.5945;
950.7000;0.6146;0.6046;
951.0000;0.6154;0.6046;
951.3000;0.6170;0.6172;
951.6000;0.6146;0.6121;
951.9000;0.6138;0.6172;
952.2000;0.6154;0.6247;
952.5000;0.6170;0.6247;
952.8000;0.6170;0.6272;
953.1000;0.6170;0.6297;
953.4000;0.6162;0.6272;
953.7000;0.6154;0.6121;
954.0000;0.6129;0.5970;
954.3000;0.6146;0.5920;
954.6000;0.6154;0.5995;
954.9000;0.6138;0.5995;
955.2000;0.6170;0.6172;
955.5000;0.6146;0.6020;
955.8000;0.6146;0.6020;
956.1000;0.6129;0.5970;
956.4000;0.6138;0.5995;
956.7000;0.6113;0.5945;
957.0000;0.6178;0.6071;
957.3000;0.6162;0.5970;
957.6000;0.6162;0.6020;
957.9000;0.6146;0.6046;
958.2000;0.6154;0.6121;
958.5000;0.6162;0.6071;
958.8000;0.6186;0.6146;
959.1000;0.6146;0.5995;
959.4000;0.6178;0.6020;
959.7000;0.6154;0.5970;
960.0000;0.6138;0.5920;
960.3000;0.6138;0.5920;
960.6000;0.6129;0.5819;
960.9000;0.6138;0.5920;
961.2000;0.6146;0.5945;
961.5000;0.6146;0.5945;
961.8000;0.6138;0.5945;
962.1000;0.6146;0.6020;
962.4000;0.6154;0.6020;
962.7000;0.6129;0.6071;
963.0000;0.6146;0.6071;
963.3000;0.6146;0.5995;
963.6000;0.6154;0.6046;
963.9000;0.6154;0.6146;
964.2000;0.6146;0.6121;
964.5000;0.6138;0.6121;
964.8000;0.6146;0.6172;
965.1000;0.6138;0.6046;
965.4000;0.6129;0.5995;
965.7000;0.6146;0.6071;
966.0000;0.6154;0.6096;
966.3000;0.6170;0.6222;
966.6000;0.6138;0.6146;
966.9000;0.6154;0.6172;
967.2000;0.6113;0.6172;
967.5000;0.6154;0.6197;
967.8000;0.6146;0.6222;
968.1000;0.6154;0.6222;
968.4000;0.6146;0.6222;
968.7000;0.6138;0.6222;
969.0000;0.6146;0.6172;
969.3000;0.6154;0.6096;
969.6000;0.6154;0.6172;
969.9000;0.6138;0.6172;
970.2000;0.6113;0.6146;
970.5000;0.6138;0.6146;
970.8000;0.6146;0.6071;
971.1000;0.6146;0.5995;
971.4000;0.6170;0.6020;
971.7000;0.6129;0.5945;
972.0000;0.6138;0.6046;
972.3000;0.6105;0.6020;
972.6000;0.6146;0.6172;
972.9000;0.6129;0.6247;
973.2000;0.6138;0.6172;
973.5000;0.6129;0.6096;
973.8000;0.6138;0.6121;
974.1000;0.6138;0.6146;
974.4000;0.6121;0.6121;
974.7000;0.6105;0.6096;
975.0000;0.6138;0.6172;
975.3000;0.6129;0.6046;
975.6000;0.6146;0.6096;
975.9000;0.6113;0.6046;
976.2000;0.6129;0.6121;
976.5000;0.6129;0.6071;
976.8000;0.6138;0.5995;
977.1000;0.6121;0.5970;
977.4000;0.6121;0.5970;
977.7000;0.6138;0.6071;
978.0000;0.6089;0.5970;
978.3000;0.6129;0.6121;
978.6000;0.6146;0.6172;
978.9000;0.6154;0.6247;
979.2000;0.6154;0.6247;
979.5000;0.6138;0.6297;
979.8000;0.6162;0.6348;
980.1000;0.6162;0.6297;
980.4000;0.6138;0.6222;
980.7000;0.6138;0.6197;
981.0000;0.6129;0.6071;
981.3000;0.6186;0.6247;
981.6000;0.6154;0.6121;
981.9000;0.6129;0.6222;
982.2000;0.6146;0.6247;
982.5000;0.6146;0.6247;
982.8000;0.6146;0.6373;
983.1000;0.6121;0.6272;
983.4000;0.6219;0.6499;
983.7000;0.6162;0.6398;
984.0000;0.6154;0.6398;
984.3000;0.6138;0.6348;
984.6000;0.6203;0.6499;
984.9000;0.6064;0.6146;
985.2000;0.6138;0.6323;
985.5000;0.6129;0.6247;
985.8000;0.6121;0.6297;
986.1000;0.6113;0.6348;
986.4000;0.6121;0.6348;
986.7000;0.6105;0.6247;
987.0000;0.6121;0.6323;
987.3000;0.6113;0.6373;
987.6000;0.6105;0.6423;
987.9000;0.6129;0.6499;
988.2000;0.6121;0.6423;
988.5000;0.6113;0.6449;
988.8000;0.6138;0.6449;
989.1000;0.6129;0.6499;
989.4000;0.6105;0.6474;
989.7000;0.6121;0.6499;
990.0000;0.6105;0.6524;
990.3000;0.6129;0.6499;
990.6000;0.6146;0.6499;
990.9000;0.6113;0.6272;
991.2000;0.6138;0.6297;
991.5000;0.6121;0.6222;
991.8000;0.6129;0.6247;
992.1000;0.6138;0.6222;
992.4000;0.6121;0.6096;
992.7000;0.6146;0.6197;
993.0000;0.6154;0.6222;
993.3000;0.6146;0.6247;
993.6000;0.6129;0.6222;
993.9000;0.6129;0.6247;
994.2000;0.6097;0.6146;
994.5000;0.6146;0.6272;
994.8000;0.6138;0.6272;
995.1000;0.6113;0.6222;
995.4000;0.6113;0.6247;
995.7000;0.6129;0.6348;
996.0000;0.6097;0.6197;
996.3000;0.6113;0.6197;
996.6000;0.6170;0.6348;
996.9000;0.6129;0.6121;
997.2000;0.6113;0.6172;
997.5000;0.6089;0.6096;
997.8000;0.6129;0.6172;
998.1000;0.6113;0.6172;
998.4000;0.6138;0.6222;
998.7000;0.6113;0.6197;
999.0000;0.6146;0.6172;
999.3000;0.6121;0.6096;
999.6000;0.6121;0.6096;
999.9000;0.6097;0.6046;
1000.2000;0.6129;0.6146;
1000.5000;0.6097;0.6146;
1000.8000;0.6129;0.6197;
1001.1000;0.6113;0.6197;
1001.4000;0.6089;0.6172;
1001.7000;0.6105;0.6222;
1002.0000;0.6105;0.6172;
1002.3000;0.6113;0.6146;
1002.6000;0.6129;0.6121;
1002.9000;0.6129;0.6222;
1003.2000;0.6097;0.6146;
1003.5000;0.6162;0.6272;
1003.8000;0.6129;0.6172;
1004.1000;0.6089;0.6121;
1004.4000;0.6129;0.6222;
1004.7000;0.6089;0.6121;
1005.0000;0.6121;0.6197;
1005.3000;0.6113;0.6197;
1005.6000;0.6138;0.6197;
1005.9000;0.6146;0.6222;
1006.2000;0.6113;0.6071;
1006.5000;0.6105;0.6071;
1006.8000;0.6113;0.6121;
1007.1000;0.6129;0.6096;
1007.4000;0.6129;0.6146;
1007.7000;0.6081;0.6020;
1008.0000;0.6089;0.6071;
1008.3000;0.6129;0.6071;
1008.6000;0.6178;0.6247;
1008.9000;0.6064;0.5894;
1009.2000;0.6113;0.6096;
1009.5000;0.6121;0.6247;
1009.8000;0.6121;0.6272;
1010.1000;0.6097;0.6222;
1010.4000;0.6113;0.6222;
1010.7000;0.6129;0.6172;
1011.0000;0.6121;0.6197;
1011.3000;0.6105;0.6247;
1011.6000;0.6129;0.6172;
1011.9000;0.6121;0.6071;
1012.2000;0.6113;0.6096;
1012.5000;0.6121;0.6121;
1012.8000;0.6113;0.6197;
1013.1000;0.6129;0.6172;
1013.4000;0.6097;0.6096;
1013.7000;0.6121;0.6172;
1014.0000;0.6121;0.6071;
1014.3000;0.6154;0.6096;
1014.6000;0.6129;0.6046;
1014.9000;0.6129;0.6071;
1015.2000;0.6121;0.6020;
1015.5000;0.6121;0.5945;
1015.8000;0.6129;0.6020;
1016.1000;0.6113;0.5920;
1016.4000;0.6154;0.6020;
1016.7000;0.6105;0.5970;
1017.0000;0.6138;0.5995;
1017.3000;0.6105;0.5945;
1017.6000;0.6081;0.5894;
1017.9000;0.6105;0.5945;
1018.2000;0.6186;0.6096;
1018.5000;0.6121;0.5970;
1018.8000;0.6154;0.6121;
1019.1000;0.6105;0.5970;
1019.4000;0.6129;0.6020;
1019.7000;0.6129;0.6096;
1020.0000;0.6121;0.6121;
1020.3000;0.6097;0.6071;
1020.6000;0.6089;0.6071;
1020.9000;0.6105;0.6046;
1021.2000;0.6113;0.6121;
1021.5000;0.6097;0.6096;
1021.8000;0.6113;0.6197;
1022.1000;0.6129;0.6247;
1022.4000;0.6121;0.6222;
1022.7000;0.6121;0.6222;
1023.0000;0.6146;0.6323;
1023.3000;0.6072;0.6172;
1023.6000;0.6121;0.6323;
1023.9000;0.6097;0.6172;
1024.2000;0.6113;0.6222;
1024.5000;0.6105;0.6247;
1024.8000;0.6097;0.6197;
1025.1000;0.6121;0.6146;
1025.4000;0.6113;0.6197;
1025.7000;0.6089;0.6121;
1026.0000;0.6081;0.6096;
1026.3000;0.6121;0.6172;
1026.6000;0.6097;0.6146;
1026.9000;0.6089;0.6146;
1027.2000;0.6113;0.6247;
1027.5000;0.6121;0.6297;
1027.8000;0.6121;0.6272;
1028.1000;0.6089;0.6222;
1028.4000;0.6097;0.6197;
1028.7000;0.6113;0.6272;
1029.0000;0.6089;0.6247;
1029.3000;0.6105;0.6272;
1029.6000;0.6170;0.6398;
1029.9000;0.6113;0.6323;
1030.2000;0.6121;0.6247;
1030.5000;0.6138;0.6348;
1030.8000;0.6105;0.6247;
1031.1000;0.6081;0.6222;
1031.4000;0.6154;0.6449;
1031.7000;0.6097;0.6272;
1032.0000;0.6089;0.6222;
1032.3000;0.6081;0.6172;
1032.6000;0.6089;0.6247;
1032.9000;0.6072;0.6172;
1033.2000;0.6081;0.6172;
1033.5000;0.6081;0.6096;
1033.8000;0.6097;0.6096;
1034.1000;0.6105;0.6121;
1034.4000;0.6105;0.6121;
1034.7000;0.6121;0.6222;
1035.0000;0.6105;0.6272;
1035.3000;0.6105;0.6222;
1035.6000;0.6097;0.6172;
1035.9000;0.6097;0.6172;
1036.2000;0.6105;0.6172;
1036.5000;0.6113;0.6146;
1036.8000;0.6105;0.6046;
1037.1000;0.6089;0.6046;
1037.4000;0.6097;0.6146;
1037.7000;0.6081;0.6146;
1038.0000;0.6089;0.6222;
1038.3000;0.6097;0.6247;
1038.6000;0.6105;0.6222;
1038.9000;0.6113;0.6297;
1039.2000;0.6162;0.6398;
1039.5000;0.6040;0.6121;
1039.8000;0.6064;0.6197;
1040.1000;0.6097;0.6121;
1040.4000;0.6105;0.6121;
1040.7000;0.6097;0.6172;
1041.0000;0.6097;0.6222;
1041.3000;0.6121;0.6172;
1041.6000;0.6089;0.6172;
1041.9000;0.6081;0.6197;
1042.2000;0.6097;0.6272;
1042.5000;0.6105;0.6247;
1042.8000;0.6105;0.6272;
1043.1000;0.6113;0.6297;
1043.4000;0.6129;0.6197;
1043.7000;0.6089;0.6172;
1044.0000;0.6121;0.6197;
1044.3000;0.6105;0.6146;
1044.6000;0.6097;0.6172;
1044.9000;0.6113;0.6197;
1045.2000;0.6081;0.6121;
1045.5000;0.6121;0.6272;
1045.8000;0.6097;0.6222;
1046.1000;0.6081;0.6197;
1046.4000;0.6097;0.6272;
1046.7000;0.6113;0.6373;
1047.0000;0.6056;0.6297;
1047.3000;0.6040;0.6222;
1047.6000;0.6040;0.6197;
1047.9000;0.6089;0.6348;
1048.2000;0.6121;0.6323;
1048.5000;0.6121;0.6297;
1048.8000;0.6121;0.6297;
1049.1000;0.6121;0.6297;
1049.4000;0.6081;0.6222;
1049.7000;0.6072;0.6197;
1050.0000;0.6072;0.6197;
1050.3000;0.6129;0.6272;
1050.6000;0.6105;0.6297;
1050.9000;0.6097;0.6323;
1051.2000;0.6064;0.6297;
1051.5000;0.6089;0.6348;
1051.8000;0.6089;0.6348;
1052.1000;0.6089;0.6348;
1052.4000;0.6089;0.6348;
1052.7000;0.6089;0.6348;
1053.0000;0.6072;0.6323;
1053.3000;0.6089;0.6297;
1053.6000;0.6089;0.6272;
1053.9000;0.6081;0.6247;
1054.2000;0.6089;0.6373;
1054.5000;0.6097;0.6423;
1054.8000;0.6089;0.6323;
1055.1000;0.6105;0.6373;
1055.4000;0.6089;0.6272;
1055.7000;0.6097;0.6197;
1056.0000;0.6121;0.6348;
1056.3000;0.6072;0.6222;
1056.6000;0.6089;0.6197;
1056.9000;0.6113;0.6121;
1057.2000;0.6081;0.6146;
1057.5000;0.6089;0.6121;
1057.8000;0.6162;0.6348;
1058.1000;0.6081;0.6146;
1058.4000;0.6089;0.6146;
1058.7000;0.6072;0.6222;
1059.0000;0.6081;0.6222;
1059.3000;0.6121;0.6272;
1059.6000;0.6072;0.6146;
1059.9000;0.6081;0.6071;
1060.2000;0.6081;0.6020;
1060.5000;0.6097;0.5945;
1060.8000;0.6081;0.5894;
1061.1000;0.6072;0.5894;
1061.4000;0.6056;0.5869;
1061.7000;0.6089;0.5894;
1062.0000;0.6081;0.5869;
1062.3000;0.6064;0.5894;
1062.6000;0.6081;0.5970;
1062.9000;0.6040;0.5945;
1063.2000;0.6113;0.6172;
1063.5000;0.6081;0.6121;
1063.8000;0.6072;0.6172;
1064.1000;0.6097;0.6297;
1064.4000;0.6146;0.6348;
1064.7000;0.6089;0.6146;
1065.0000;0.6081;0.6046;
1065.3000;0.6089;0.6096;
1065.6000;0.6081;0.6197;
1065.9000;0.6081;0.6222;
1066.2000;0.6105;0.6297;
1066.5000;0.6081;0.6172;
1066.8000;0.6081;0.6146;
1067.1000;0.6089;0.6197;
1067.4000;0.6072;0.6146;
1067.7000;0.6072;0.6222;
1068.0000;0.6072;0.6247;
1068.3000;0.6081;0.6297;
1068.6000;0.6081;0.6247;
1068.9000;0.6113;0.6423;
1069.2000;0.6081;0.6398;
1069.5000;0.6097;0.6398;
1069.8000;0.6097;0.6348;
1070.1000;0.6089;0.6373;
1070.4000;0.6072;0.6272;
1070.7000;0.6081;0.6272;
1071.0000;0.6081;0.6297;
1071.3000;0.6089;0.6247;
1071.6000;0.6064;0.6247;
1071.9000;0.6089;0.6146;
1072.2000;0.6105;0.6272;
1072.5000;0.6072;0.6222;
1072.8000;0.6081;0.6121;
1073.1000;0.6032;0.6020;
1073.4000;0.6081;0.6172;
1073.7000;0.6056;0.6146;
1074.0000;0.6064;0.6222;
1074.3000;0.6097;0.6247;
1074.6000;0.6072;0.6272;
1074.9000;0.6072;0.6247;
1075.2000;0.6072;0.6172;
1075.5000;0.6072;0.6222;
1075.8000;0.6089;0.6172;
1076.1000;0.6072;0.6121;
1076.4000;0.6097;0.6172;
1076.7000;0.6072;0.6247;
1077.0000;0.6072;0.6247;
1077.3000;0.6081;0.6297;
1077.6000;0.6089;0.6247;
1077.9000;0.6154;0.6297;
1078.2000;0.6097;0.6197;
1078.5000;0.6089;0.6172;
1078.8000;0.6081;0.6121;
1079.1000;0.6129;0.6297;
1079.4000;0.6081;0.6197;
1079.7000;0.6089;0.6272;
1080.0000;0.6154;0.6348;
1080.3000;0.6064;0.6172;
1080.6000;0.6072;0.6272;
1080.9000;0.6097;0.6247;
1081.2000;0.6064;0.6146;
1081.5000;0.6081;0.6121;
1081.8000;0.6081;0.6071;
1082.1000;0.6081;0.6071;
1082.4000;0.6081;0.6071;
1082.7000;0.6089;0.6121;
1083.0000;0.6089;0.6146;
1083.3000;0.6089;0.6197;
1083.6000;0.6081;0.6096;
1083.9000;0.6089;0.6247;
1084.2000;0.6048;0.6172;
1084.5000;0.6081;0.6247;
1084.8000;0.6064;0.6197;
1085.1000;0.6056;0.6146;
1085.4000;0.6072;0.6096;
1085.7000;0.6089;0.6096;
1086.0000;0.6089;0.6197;
1086.3000;0.6072;0.6046;
1086.6000;0.6072;0.5945;
1086.9000;0.6072;0.5945;
1087.2000;0.6089;0.5970;
1087.5000;0.6072;0.6020;
1087.8000;0.6072;0.6020;
1088.1000;0.6072;0.6071;
1088.4000;0.6064;0.6121;
1088.7000;0.6097;0.6222;
1089.0000;0.6081;0.6197;
1089.3000;0.6072;0.6172;
1089.6000;0.6081;0.6172;
1089.9000;0.6072;0.6222;
1090.2000;0.6064;0.6247;
1090.5000;0.6081;0.6247;
1090.8000;0.6064;0.6146;
1091.1000;0.6072;0.6172;
1091.4000;0.6089;0.6172;
1091.7000;0.6048;0.6121;
1092.0000;0.6081;0.6222;
1092.3000;0.6072;0.6247;
1092.6000;0.6081;0.6172;
1092.9000;0.6072;0.6172;
1093.2000;0.6064;0.6096;
1093.5000;0.6081;0.6121;
1093.8000;0.6072;0.6071;
1094.1000;0.6072;0.5995;
1094.4000;0.6015;0.5995;
1094.7000;0.6129;0.6323;
1095.0000;0.6056;0.6146;
1095.3000;0.6056;0.6146;
1095.6000;0.6064;0.6121;
1095.9000;0.6064;0.6247;
1096.2000;0.6072;0.6247;
1096.5000;0.6056;0.6247;
1096.8000;0.6056;0.6247;
1097.1000;0.6064;0.6323;
1097.4000;0.6089;0.6373;
1097.7000;0.6064;0.6373;
1098.0000;0.6105;0.6449;
1098.3000;0.6089;0.6348;
1098.6000;0.6056;0.6247;
1098.9000;0.6064;0.6222;
1099.2000;0.6072;0.6146;
1099.5000;0.6048;0.6172;
1099.8000;0.6064;0.6272;
1100.1000;0.6064;0.6197;
1100.4000;0.6056;0.6172;
1100.7000;0.6056;0.6247;
1101.0000;0.6097;0.6272;
1101.3000;0.6081;0.6172;
1101.6000;0.6048;0.6020;
1101.9000;0.6072;0.6172;
1102.2000;0.6064;0.6297;
1102.5000;0.6072;0.6348;
1102.8000;0.6081;0.6297;
1103.1000;0.6048;0.6272;
1103.4000;0.6056;0.6247;
1103.7000;0.6056;0.6247;
1104.0000;0.6064;0.6222;
1104.3000;0.6056;0.6172;
1104.6000;0.6032;0.6046;
1104.9000;0.6072;0.6197;
1105.2000;0.6072;0.6222;
1105.5000;0.6056;0.6222;
1105.8000;0.6089;0.6297;
1106.1000;0.6072;0.6222;
1106.4000;0.6056;0.6272;
1106.7000;0.6072;0.6348;
1107.0000;0.6081;0.6297;
1107.3000;0.6064;0.6222;
1107.6000;0.6064;0.6247;
1107.9000;0.6064;0.6222;
1108.2000;0.6056;0.6222;
1108.5000;0.6056;0.6172;
1108.8000;0.6072;0.6297;
1109.1000;0.6064;0.6297;
1109.4000;0.6081;0.6297;
1109.7000;0.6007;0.6096;
1110.0000;0.6056;0.6197;
1110.3000;0.6072;0.6272;
1110.6000;0.6081;0.6247;
1110.9000;0.6072;0.6146;
1111.2000;0.6081;0.6197;
1111.5000;0.6072;0.6222;
1111.8000;0.6032;0.6146;
1112.1000;0.6056;0.6272;
1112.4000;0.6089;0.6323;
1112.7000;0.6072;0.6247;
1113.0000;0.6072;0.6272;
1113.3000;0.6048;0.6222;
1113.6000;0.6064;0.6297;
1113.9000;0.6089;0.6449;
1114.2000;0.6064;0.6398;
1114.5000;0.6089;0.6423;
1114.8000;0.6048;0.6247;
1115.1000;0.6072;0.6398;
1115.4000;0.6072;0.6398;
1115.7000;0.6048;0.6323;
1116.0000;0.6056;0.6272;
1116.3000;0.6072;0.6323;
1116.6000;0.6040;0.6272;
1116.9000;0.6097;0.6398;
1117.2000;0.6032;0.6247;
1117.5000;0.6072;0.6398;
1117.8000;0.6072;0.6373;
1118.1000;0.6097;0.6449;
1118.4000;0.6040;0.6373;
1118.7000;0.6056;0.6373;
1119.0000;0.6056;0.6297;
1119.3000;0.6048;0.6373;
1119.6000;0.6040;0.6323;
1119.9000;0.6064;0.6272;
1120.2000;0.6056;0.6272;
1120.5000;0.6072;0.6297;
1120.8000;0.6089;0.6373;
1121.1000;0.6072;0.6348;
1121.4000;0.6072;0.6297;
1121.7000;0.6072;0.6272;
1122.0000;0.6089;0.6323;
1122.3000;0.6081;0.6172;
1122.6000;0.6056;0.6146;
1122.9000;0.6072;0.6222;
1123.2000;0.6081;0.6272;
1123.5000;0.6081;0.6272;
1123.8000;0.6064;0.6172;
1124.1000;0.6097;0.6197;
1124.4000;0.6072;0.6096;
1124.7000;0.6056;0.6172;
1125.0000;0.6072;0.6146;
1125.3000;0.6072;0.6172;
1125.6000;0.6089;0.6146;
1125.9000;0.6064;0.6096;
1126.2000;0.6064;0.6121;
1126.5000;0.6064;0.6222;
1126.8000;0.6081;0.6247;
1127.1000;0.6072;0.6222;
1127.4000;0.6056;0.6272;
1127.7000;0.6081;0.6373;
1128.0000;0.6048;0.6323;
1128.3000;0.6081;0.6348;
1128.6000;0.6064;0.6247;
1128.9000;0.6064;0.6096;
1129.2000;0.6072;0.6197;
1129.5000;0.6072;0.6272;
1129.8000;0.6048;0.6247;
1130.1000;0.6056;0.6197;
1130.4000;0.6081;0.6272;
1130.7000;0.6064;0.6146;
1131.0000;0.6081;0.6121;
1131.3000;0.6072;0.6146;
1131.6000;0.6015;0.6046;
1131.9000;0.6081;0.6121;
1132.2000;0.6064;0.6172;
1132.5000;0.6129;0.6348;
1132.8000;0.6081;0.6222;
1133.1000;0.6064;0.6071;
1133.4000;0.6064;0.6071;
1133.7000;0.6081;0.6172;
1134.0000;0.6056;0.6121;
1134.3000;0.6040;0.6146;
1134.6000;0.6048;0.6146;
1134.9000;0.6056;0.6197;
1135.2000;0.6032;0.6121;
1135.5000;0.6072;0.6146;
1135.8000;0.6015;0.6020;
1136.1000;0.6064;0.6172;
1136.4000;0.6040;0.6172;
1136.7000;0.6113;0.6348;
1137.0000;0.6048;0.6146;
1137.3000;0.6064;0.6197;
1137.6000;0.6056;0.6121;
1137.9000;0.6064;0.6222;
1138.2000;0.6056;0.6297;
1138.5000;0.6048;0.6297;
1138.8000;0.6048;0.6096;
1139.1000;0.6056;0.6096;
1139.4000;0.6072;0.6096;
1139.7000;0.6064;0.6096;
1140.0000;0.6048;0.6046;
1140.3000;0.6040;0.6071;
1140.6000;0.6040;0.6096;
1140.9000;0.6040;0.6046;
1141.2000;0.6056;0.6096;
1141.5000;0.6097;0.6247;
1141.8000;0.5975;0.5920;
1142.1000;0.6138;0.6323;
1142.4000;0.6064;0.6146;
1142.7000;0.6032;0.6096;
1143.0000;0.6056;0.6272;
1143.3000;0.6064;0.6297;
1143.6000;0.6056;0.6348;
1143.9000;0.6032;0.6297;
1144.2000;0.6097;0.6398;
1144.5000;0.6040;0.6172;
1144.8000;0.6064;0.6247;
1145.1000;0.6024;0.6222;
1145.4000;0.6048;0.6348;
1145.7000;0.6048;0.6398;
1146.0000;0.6032;0.6398;
1146.3000;0.6040;0.6373;
1146.6000;0.6072;0.6449;
1146.9000;0.6072;0.6449;
1147.2000;0.6072;0.6449;
1147.5000;0.6072;0.6549;
1147.8000;0.6064;0.6575;
1148.1000;0.6064;0.6474;
1148.4000;0.6048;0.6423;
1148.7000;0.6072;0.6398;
1149.0000;0.6056;0.6348;
1149.3000;0.6040;0.6348;
1149.6000;0.6113;0.6474;
1149.9000;0.6015;0.6172;
1150.2000;0.6064;0.6323;
1150.5000;0.6040;0.6146;
1150.8000;0.6056;0.6172;
1151.1000;0.6056;0.6222;
1151.4000;0.6040;0.6197;
1151.7000;0.6056;0.6247;
1152.0000;0.6048;0.6146;
1152.3000;0.6072;0.6247;
1152.6000;0.6064;0.6247;
1152.9000;0.6056;0.6272;
1153.2000;0.6048;0.6197;
1153.5000;0.6040;0.6197;
1153.8000;0.6056;0.6247;
1154.1000;0.6048;0.6272;
1154.4000;0.6048;0.6197;
1154.7000;0.6032;0.6222;
1155.0000;0.6064;0.6222;
1155.3000;0.6072;0.6247;
1155.6000;0.6048;0.6096;
1155.9000;0.6048;0.6146;
1156.2000;0.6040;0.6146;
1156.5000;0.6064;0.6247;
1156.8000;0.6048;0.6172;
1157.1000;0.6040;0.6172;
1157.4000;0.6040;0.6222;
1157.7000;0.6048;0.6247;
1158.0000;0.6048;0.6247;
1158.3000;0.6040;0.6222;
1158.6000;0.6056;0.6197;
1158.9000;0.6056;0.6272;
1159.2000;0.6056;0.6272;
1159.5000;0.6048;0.6222;
1159.8000;0.6040;0.6323;
1160.1000;0.6072;0.6398;
1160.4000;0.6040;0.6373;
1160.7000;0.6032;0.6323;
1161.0000;0.6064;0.6398;
1161.3000;0.6072;0.6398;
1161.6000;0.6072;0.6423;
1161.9000;0.6089;0.6373;
1162.2000;0.6056;0.6323;
1162.5000;0.6056;0.6297;
1162.8000;0.6072;0.6297;
1163.1000;0.6056;0.6323;
1163.4000;0.6064;0.6373;
1163.7000;0.6072;0.6423;
1164.0000;0.6089;0.6549;
1164.3000;0.6056;0.6549;
1164.6000;0.6048;0.6524;
1164.9000;0.6056;0.6398;
1165.2000;0.6072;0.6423;
1165.5000;0.6024;0.6398;
1165.8000;0.6064;0.6474;
1166.1000;0.6040;0.6449;
1166.4000;0.6056;0.6373;
1166.7000;0.6040;0.6449;
1167.0000;0.6032;0.6373;
1167.3000;0.6040;0.6499;
1167.6000;0.6064;0.6499;
1167.9000;0.6064;0.6499;
1168.2000;0.6097;0.6650;
1168.5000;0.6007;0.6423;
1168.8000;0.6048;0.6600;
1169.1000;0.6048;0.6650;
1169.4000;0.6056;0.6600;
1169.7000;0.6056;0.6650;
1170.0000;0.6032;0.6600;
1170.3000;0.6032;0.6549;
1170.6000;0.6048;0.6600;
1170.9000;0.5999;0.6474;
1171.2000;0.6048;0.6625;
1171.5000;0.6081;0.6701;
1171.8000;0.6056;0.6575;
1172.1000;0.6040;0.6675;
1172.4000;0.6064;0.6701;
1172.7000;0.6064;0.6600;
1173.0000;0.6056;0.6575;
1173.3000;0.6056;0.6549;
1173.6000;0.6072;0.6600;
1173.9000;0.6032;0.6600;
1174.2000;0.6048;0.6625;
1174.5000;0.6032;0.6625;
1174.8000;0.6040;0.6499;
1175.1000;0.6056;0.6423;
1175.4000;0.6064;0.6398;
1175.7000;0.6048;0.6449;
1176.0000;0.6040;0.6524;
1176.3000;0.6032;0.6549;
1176.6000;0.6048;0.6524;
1176.9000;0.6040;0.6449;
1177.2000;0.6048;0.6423;
1177.5000;0.6048;0.6449;
1177.8000;0.6064;0.6398;
1178.1000;0.6089;0.6575;
1178.4000;0.6056;0.6423;
1178.7000;0.6064;0.6373;
1179.0000;0.6048;0.6398;
1179.3000;0.6040;0.6348;
1179.6000;0.6040;0.6499;
1179.9000;0.6032;0.6449;
1180.2000;0.6024;0.6449;
1180.5000;0.6024;0.6449;
1180.8000;0.6048;0.6524;
1181.1000;0.6056;0.6600;
1181.4000;0.6040;0.6499;
1181.7000;0.6056;0.6474;
1182.0000;0.6032;0.6423;
1182.3000;0.6040;0.6474;
1182.6000;0.6056;0.6423;
1182.9000;0.6040;0.6348;
1183.2000;0.6048;0.6373;
1183.5000;0.6072;0.6423;
1183.8000;0.6032;0.6272;
1184.1000;0.6048;0.6247;
1184.4000;0.6048;0.6247;
1184.7000;0.6064;0.6247;
1185.0000;0.6048;0.6323;
1185.3000;0.6064;0.6423;
1185.6000;0.6040;0.6323;
1185.9000;0.6048;0.6373;
1186.2000;0.6048;0.6474;
1186.5000;0.6056;0.6474;
1186.8000;0.6072;0.6524;
1187.1000;0.6064;0.6499;
1187.4000;0.6056;0.6474;
1187.7000;0.6064;0.6474;
1188.0000;0.6072;0.6499;
1188.3000;0.6056;0.6449;
1188.6000;0.6048;0.6398;
1188.9000;0.6032;0.6398;
1189.2000;0.6040;0.6474;
1189.5000;0.6024;0.6499;
1189.8000;0.6040;0.6575;
1190.1000;0.6015;0.6524;
1190.4000;0.5983;0.6348;
1190.7000;0.6048;0.6524;
1191.0000;0.6048;0.6499;
1191.3000;0.6072;0.6524;
1191.6000;0.6032;0.6449;
1191.9000;0.6056;0.6499;
1192.2000;0.6040;0.6474;
1192.5000;0.5975;0.6297;
1192.8000;0.6032;0.6348;
1193.1000;0.6081;0.6474;
1193.4000;0.6056;0.6373;
1193.7000;0.6056;0.6297;
1194.0000;0.6081;0.6247;
1194.3000;0.6048;0.6222;
1194.6000;0.6048;0.6247;
1194.9000;0.6056;0.6247;
1195.2000;0.6048;0.6272;
1195.5000;0.6064;0.6373;
1195.8000;0.6048;0.6348;
1196.1000;0.6056;0.6323;
1196.4000;0.6040;0.6172;
1196.7000;0.6048;0.6222;
1197.0000;0.6064;0.6247;
1197.3000;0.6056;0.6197;
1197.6000;0.6040;0.6146;
1197.9000;0.6048;0.6222;
1198.2000;0.6048;0.6222;
1198.5000;0.6048;0.6222;
1198.8000;0.6040;0.6121;
1199.1000;0.6048;0.6096;
1199.4000;0.6040;0.6197;
1199.7000;0.6048;0.6297;
1200.0000;0.6040;0.6247;
1200.3000;0.6048;0.6247;
1200.6000;0.6048;0.6247;
1200.9000;0.6040;0.6146;
1201.2000;0.6024;0.6121;
1201.5000;0.6040;0.6222;
1201.8000;0.6040;0.6197;
1202.1000;0.6048;0.6197;
1202.4000;0.6048;0.6222;
1202.7000;0.6032;0.6121;
1203.0000;0.6032;0.6197;
1203.3000;0.6024;0.6247;
1203.6000;0.6032;0.6197;
1203.9000;0.6040;0.6146;
1204.2000;0.6040;0.6146;
1204.5000;0.6032;0.6121;
1204.8000;0.6048;0.6096;
1205.1000;0.6040;0.6146;
1205.4000;0.6048;0.6146;
1205.7000;0.6048;0.6046;
1206.0000;0.6040;0.6096;
1206.3000;0.6032;0.6121;
1206.6000;0.6024;0.6146;
1206.9000;0.6040;0.6297;
1207.2000;0.6048;0.6247;
1207.5000;0.6113;0.6373;
1207.8000;0.6007;0.6071;
1208.1000;0.6032;0.6146;
1208.4000;0.6048;0.6222;
1208.7000;0.6032;0.6247;
1209.0000;0.6024;0.6146;
1209.3000;0.6040;0.6197;
1209.6000;0.6048;0.6197;
1209.9000;0.6056;0.6272;
1210.2000;0.6024;0.6096;
1210.5000;0.6040;0.6071;
1210.8000;0.6113;0.6297;
1211.1000;0.6015;0.6071;
1211.4000;0.6015;0.5995;
1211.7000;0.6024;0.5970;
1212.0000;0.5975;0.5844;
1212.3000;0.6056;0.6071;
1212.6000;0.6048;0.6121;
1212.9000;0.6015;0.6096;
1213.2000;0.6032;0.6222;
1213.5000;0.6040;0.6373;
1213.8000;0.6032;0.6398;
1214.1000;0.6064;0.6474;
1214.4000;0.6015;0.6373;
1214.7000;0.6040;0.6423;
1215.0000;0.6048;0.6373;
1215.3000;0.6032;0.6373;
1215.6000;0.6097;0.6423;
1215.9000;0.6024;0.6272;
1216.2000;0.6032;0.6323;
1216.5000;0.6064;0.6449;
1216.8000;0.6024;0.6423;
1217.1000;0.6032;0.6423;
1217.4000;0.6048;0.6499;
1217.7000;0.6040;0.6474;
1218.0000;0.6048;0.6449;
1218.3000;0.6024;0.6449;
1218.6000;0.6048;0.6549;
1218.9000;0.6048;0.6600;
1219.2000;0.6040;0.6575;
1219.5000;0.6040;0.6524;
1219.8000;0.6048;0.6575;
1220.1000;0.6048;0.6549;
1220.4000;0.6007;0.6373;
1220.7000;0.6015;0.6348;
1221.0000;0.6040;0.6449;
1221.3000;0.6024;0.6449;
1221.6000;0.6040;0.6474;
1221.9000;0.6024;0.6474;
1222.2000;0.6040;0.6398;
1222.5000;0.6024;0.6348;
1222.8000;0.6040;0.6423;
1223.1000;0.6040;0.6474;
1223.4000;0.6040;0.6449;
1223.7000;0.6048;0.6398;
1224.0000;0.6015;0.6297;
1224.3000;0.6040;0.6373;
1224.6000;0.6040;0.6373;
1224.9000;0.6048;0.6499;
1225.2000;0.6072;0.6549;
1225.5000;0.6040;0.6524;
1225.8000;0.6048;0.6499;
1226.1000;0.6024;0.6449;
1226.4000;0.5999;0.6297;
1226.7000;0.6032;0.6323;
1227.0000;0.6024;0.6222;
1227.3000;0.6048;0.6247;
1227.6000;0.5991;0.6096;
1227.9000;0.6048;0.6172;
1228.2000;0.5967;0.6071;
1228.5000;0.6040;0.6297;
1228.8000;0.6024;0.6222;
1229.1000;0.6048;0.6272;
1229.4000;0.6048;0.6146;
1229.7000;0.6024;0.6096;
1230.0000;0.6032;0.6096;
1230.3000;0.6032;0.6096;
1230.6000;0.6040;0.6247;
1230.9000;0.6056;0.6197;
1231.2000;0.6032;0.6272;
1231.5000;0.6040;0.6297;
1231.8000;0.6024;0.6172;
1232.1000;0.6015;0.6247;
1232.4000;0.6040;0.6247;
1232.7000;0.6056;0.6348;
1233.0000;0.6032;0.6272;
1233.3000;0.6015;0.6222;
1233.6000;0.6040;0.6222;
1233.9000;0.6032;0.6247;
1234.2000;0.6048;0.6297;
1234.5000;0.6040;0.6247;
1234.8000;0.6056;0.6323;
1235.1000;0.6015;0.6197;
1235.4000;0.6048;0.6272;
1235.7000;0.6048;0.6222;
1236.0000;0.6040;0.6146;
1236.3000;0.6032;0.6146;
1236.6000;0.6015;0.6272;
1236.9000;0.6032;0.6449;
1237.2000;0.6032;0.6524;
1237.5000;0.6024;0.6499;
1237.8000;0.5983;0.6373;
1238.1000;0.6064;0.6524;
1238.4000;0.6007;0.6323;
1238.7000;0.6040;0.6423;
1239.0000;0.6032;0.6423;
1239.3000;0.5991;0.6247;
1239.6000;0.6064;0.6449;
1239.9000;0.6015;0.6373;
1240.2000;0.6032;0.6348;
1240.5000;0.6056;0.6348;
1240.8000;0.6032;0.6373;
1241.1000;0.6048;0.6348;
1241.4000;0.6032;0.6297;
1241.7000;0.6032;0.6323;
1242.0000;0.6024;0.6323;
1242.3000;0.6040;0.6398;
1242.6000;0.6032;0.6348;
1242.9000;0.6048;0.6348;
1243.2000;0.6040;0.6373;
1243.5000;0.6064;0.6373;
1243.8000;0.5991;0.6172;
1244.1000;0.6032;0.6373;
1244.4000;0.6089;0.6373;
1244.7000;0.6032;0.6297;
1245.0000;0.6040;0.6297;
1245.3000;0.6032;0.6297;
1245.6000;0.6024;0.6323;
1245.9000;0.6040;0.6348;
1246.2000;0.6040;0.6373;
1246.5000;0.6032;0.6449;
1246.8000;0.6024;0.6423;
1247.1000;0.6032;0.6423;
1247.4000;0.6007;0.6398;
1247.7000;0.6015;0.6423;
1248.0000;0.6024;0.6575;
1248.3000;0.6024;0.6600;
1248.6000;0.6024;0.6549;
1248.9000;0.6040;0.6549;
1249.2000;0.6032;0.6549;
1249.5000;0.6040;0.6524;
1249.8000;0.6024;0.6474;
1250.1000;0.6032;0.6474;
1250.4000;0.6048;0.6423;
1250.7000;0.6072;0.6524;
1251.0000;0.6032;0.6348;
1251.3000;0.6024;0.6348;
1251.6000;0.6032;0.6398;
1251.9000;0.6032;0.6297;
1252.2000;0.6040;0.6197;
1252.5000;0.6024;0.6121;
1252.8000;0.6072;0.6247;
1253.1000;0.6040;0.6172;
1253.4000;0.6032;0.6172;
1253.7000;0.6048;0.6323;
1254.0000;0.6032;0.6348;
1254.3000;0.6048;0.6423;
1254.6000;0.6048;0.6449;
1254.9000;0.6089;0.6474;
1255.2000;0.6032;0.6247;
1255.5000;0.6032;0.6222;
1255.8000;0.6040;0.6247;
1256.1000;0.6040;0.6247;
1256.4000;0.6032;0.6222;
1256.7000;0.6040;0.6323;
1257.0000;0.6072;0.6423;
1257.3000;0.6048;0.6247;
1257.6000;0.6040;0.6222;
1257.9000;0.6032;0.6222;
1258.2000;0.6056;0.6197;
1258.5000;0.6032;0.6172;
1258.8000;0.6015;0.6172;
1259.1000;0.6032;0.6222;
1259.4000;0.6015;0.6222;
1259.7000;0.6032;0.6172;
1260.0000;0.6024;0.6096;
1260.3000;0.6032;0.6096;
1260.6000;0.6015;0.6197;
1260.9000;0.6032;0.6272;
1261.2000;0.5991;0.6096;
1261.5000;0.6032;0.6146;
1261.8000;0.6064;0.6172;
1262.1000;0.6032;0.6121;
1262.4000;0.6015;0.6146;
1262.7000;0.6032;0.6247;
1263.0000;0.6048;0.6323;
1263.3000;0.6024;0.6247;
1263.6000;0.6024;0.6323;
1263.9000;0.6032;0.6373;
1264.2000;0.6040;0.6323;
1264.5000;0.6032;0.6348;
1264.8000;0.6040;0.6449;
1265.1000;0.6024;0.6398;
1265.4000;0.6024;0.6398;
1265.7000;0.6040;0.6373;
1266.0000;0.6056;0.6398;
1266.3000;0.6040;0.6297;
1266.6000;0.6007;0.6172;
1266.9000;0.6015;0.6323;
1267.2000;0.6015;0.6423;
1267.5000;0.6032;0.6398;
1267.8000;0.6040;0.6398;
1268.1000;0.6007;0.6348;
1268.4000;0.6040;0.6423;
1268.7000;0.6032;0.6398;
1269.0000;0.5999;0.6323;
1269.3000;0.6032;0.6297;
1269.6000;0.6024;0.6247;
1269.9000;0.6032;0.6222;
1270.2000;0.6032;0.6222;
1270.5000;0.6032;0.6046;
1270.8000;0.6015;0.5945;
1271.1000;0.6024;0.6071;
1271.4000;0.6097;0.6272;
1271.7000;0.6015;0.6121;
1272.0000;0.6007;0.6146;
1272.3000;0.6007;0.6071;
1272.6000;0.6007;0.6146;
1272.9000;0.6007;0.6146;
1273.2000;0.6015;0.6197;
1273.5000;0.6007;0.6247;
1273.8000;0.6024;0.6297;
1274.1000;0.6015;0.6272;
1274.4000;0.5991;0.6222;
1274.7000;0.6048;0.6323;
1275.0000;0.6015;0.6247;
1275.3000;0.6015;0.6222;
1275.6000;0.6015;0.6247;
1275.9000;0.6032;0.6323;
1276.2000;0.6040;0.6323;
1276.5000;0.6032;0.6348;
1276.8000;0.6015;0.6297;
1277.1000;0.6032;0.6323;
1277.4000;0.6032;0.6297;
1277.7000;0.6007;0.6272;
1278.0000;0.6032;0.6297;
1278.3000;0.6024;0.6272;
1278.6000;0.6040;0.6272;
1278.9000;0.6007;0.6197;
1279.2000;0.6015;0.6323;
1279.5000;0.6024;0.6398;
1279.8000;0.6040;0.6373;
1280.1000;0.6032;0.6348;
1280.4000;0.6032;0.6323;
1280.7000;0.6024;0.6323;
1281.0000;0.6007;0.6247;
1281.3000;0.5983;0.6096;
1281.6000;0.6024;0.6373;
1281.9000;0.6007;0.6373;
1282.2000;0.6024;0.6423;
1282.5000;0.6024;0.6499;
1282.8000;0.6015;0.6449;
1283.1000;0.6015;0.6423;
1283.4000;0.6007;0.6398;
1283.7000;0.6015;0.6348;
1284.0000;0.6040;0.6297;
1284.3000;0.6024;0.6222;
1284.6000;0.6032;0.6222;
1284.9000;0.6032;0.6272;
1285.2000;0.6007;0.6121;
1285.5000;0.6032;0.6197;
1285.8000;0.6032;0.6247;
1286.1000;0.6024;0.6222;
1286.4000;0.6040;0.6146;
1286.7000;0.6040;0.6121;
1287.0000;0.6015;0.6172;
1287.3000;0.6032;0.6222;
1287.6000;0.6048;0.6272;
1287.9000;0.6040;0.6172;
1288.2000;0.6015;0.6172;
1288.5000;0.6032;0.6247;
1288.8000;0.6032;0.6297;
1289.1000;0.6032;0.6272;
1289.4000;0.6032;0.6247;
1289.7000;0.6032;0.6272;
1290.0000;0.5983;0.6046;
1290.3000;0.6032;0.6222;
1290.6000;0.6024;0.6247;
1290.9000;0.6024;0.6323;
1291.2000;0.6024;0.6423;
1291.5000;0.6007;0.6373;
1291.8000;0.6024;0.6423;
1292.1000;0.6024;0.6398;
1292.4000;0.6015;0.6297;
1292.7000;0.6032;0.6222;
1293.0000;0.6040;0.6222;
1293.3000;0.6032;0.6197;
1293.6000;0.6015;0.6247;
1293.9000;0.6032;0.6197;
1294.2000;0.6015;0.6121;
1294.5000;0.6024;0.6197;
1294.8000;0.6032;0.6323;
1295.1000;0.6032;0.6348;
1295.4000;0.6015;0.6323;
1295.7000;0.6024;0.6197;
1296.0000;0.6015;0.6222;
1296.3000;0.6024;0.6272;
1296.6000;0.6089;0.6373;
1296.9000;0.5999;0.6222;
1297.2000;0.6015;0.6272;
1297.5000;0.6024;0.6297;
1297.8000;0.6032;0.6272;
1298.1000;0.6024;0.6348;
1298.4000;0.6072;0.6423;
1298.7000;0.5950;0.6121;
1299.0000;0.6032;0.6373;
1299.3000;0.6040;0.6398;
1299.6000;0.6015;0.6297;
1299.9000;0.6024;0.6297;
1300.2000;0.6032;0.6272;
1300.5000;0.6040;0.6297;
1300.8000;0.6040;0.6247;
1301.1000;0.6032;0.6197;
1301.4000;0.5975;0.6096;
1301.7000;0.6032;0.6348;
1302.0000;0.6015;0.6323;
1302.3000;0.6007;0.6272;
1302.6000;0.6024;0.6323;
1302.9000;0.6032;0.6423;
1303.2000;0.6007;0.6323;
1303.5000;0.6015;0.6272;
1303.8000;0.6007;0.6247;
1304.1000;0.6024;0.6323;
1304.4000;0.6015;0.6297;
1304.7000;0.5999;0.6272;
1305.0000;0.6015;0.6297;
1305.3000;0.6024;0.6373;
1305.6000;0.6024;0.6398;
1305.9000;0.5967;0.6297;
1306.2000;0.6015;0.6449;
1306.5000;0.6007;0.6423;
1306.8000;0.6024;0.6474;
1307.1000;0.6015;0.6449;
1307.4000;0.6015;0.6499;
1307.7000;0.6024;0.6449;
1308.0000;0.6032;0.6373;
1308.3000;0.6015;0.6398;
1308.6000;0.6032;0.6423;
1308.9000;0.5991;0.6297;
1309.2000;0.6015;0.6348;
1309.5000;0.6032;0.6348;
1309.8000;0.6007;0.6398;
1310.1000;0.6015;0.6373;
1310.4000;0.6015;0.6272;
1310.7000;0.6015;0.6297;
1311.0000;0.6024;0.6373;
1311.3000;0.6024;0.6423;
1311.6000;0.6056;0.6549;
1311.9000;0.6048;0.6549;
1312.2000;0.6015;0.6373;
1312.5000;0.6032;0.6474;
1312.8000;0.6032;0.6474;
1313.1000;0.6024;0.6423;
1313.4000;0.6032;0.6474;
1313.7000;0.6007;0.6499;
1314.0000;0.6007;0.6449;
1314.3000;0.6024;0.6449;
1314.6000;0.6007;0.6348;
1314.9000;0.6007;0.6373;
1315.2000;0.6015;0.6398;
1315.5000;0.6015;0.6423;
1315.8000;0.6015;0.6449;
1316.1000;0.6032;0.6423;
1316.4000;0.6015;0.6323;
1316.7000;0.6015;0.6272;
1317.0000;0.6032;0.6272;
1317.3000;0.6007;0.6197;
1317.6000;0.5999;0.6172;
1317.9000;0.6032;0.6348;
1318.2000;0.6007;0.6323;
1318.5000;0.6015;0.6373;
1318.8000;0.5991;0.6323;
1319.1000;0.5999;0.6348;
1319.4000;0.6007;0.6323;
1319.7000;0.5999;0.6348;
1320.0000;0.6007;0.6373;
1320.3000;0.5942;0.6222;
1320.6000;0.6032;0.6524;
1320.9000;0.6040;0.6524;
1321.2000;0.6032;0.6499;
1321.5000;0.6064;0.6650;
1321.8000;0.6032;0.6650;
1322.1000;0.6015;0.6701;
1322.4000;0.6024;0.6776;
1322.7000;0.6007;0.6701;
1323.0000;0.6007;0.6575;
1323.3000;0.6007;0.6524;
1323.6000;0.6015;0.6474;
1323.9000;0.6024;0.6423;
1324.2000;0.6015;0.6373;
1324.5000;0.6032;0.6297;
1324.8000;0.6040;0.6449;
1325.1000;0.6015;0.6373;
1325.4000;0.6015;0.6423;
1325.7000;0.6007;0.6474;
1326.0000;0.6024;0.6474;
1326.3000;0.6007;0.6423;
1326.6000;0.6007;0.6449;
1326.9000;0.6024;0.6474;
1327.2000;0.6048;0.6524;
1327.5000;0.6015;0.6449;
1327.8000;0.6007;0.6398;
1328.1000;0.5967;0.6272;
1328.4000;0.6056;0.6423;
1328.7000;0.5999;0.6272;
1329.0000;0.6024;0.6297;
1329.3000;0.6024;0.6323;
1329.6000;0.6032;0.6373;
1329.9000;0.6032;0.6373;
1330.2000;0.6015;0.6373;
1330.5000;0.6024;0.6423;
1330.8000;0.6032;0.6423;
1331.1000;0.6024;0.6449;
1331.4000;0.5999;0.6297;
1331.7000;0.6032;0.6398;
1332.0000;0.6032;0.6398;
1332.3000;0.5983;0.6247;
1332.6000;0.6024;0.6423;
1332.9000;0.6015;0.6423;
1333.2000;0.6024;0.6499;
1333.5000;0.5950;0.6373;
1333.8000;0.6015;0.6549;
1334.1000;0.6015;0.6499;
1334.4000;0.5983;0.6423;
1334.7000;0.5950;0.6348;
1335.0000;0.6032;0.6499;
1335.3000;0.6024;0.6398;
1335.6000;0.5958;0.6297;
1335.9000;0.6032;0.6499;
1336.2000;0.6024;0.6449;
1336.5000;0.6097;0.6650;
1336.8000;0.6015;0.6449;
1337.1000;0.6024;0.6474;
1337.4000;0.6015;0.6474;
1337.7000;0.6048;0.6524;
1338.0000;0.6015;0.6423;
1338.3000;0.6024;0.6423;
1338.6000;0.6048;0.6348;
1338.9000;0.6015;0.6297;
1339.2000;0.6015;0.6222;
1339.5000;0.6015;0.6222;
1339.8000;0.6007;0.6247;
1340.1000;0.6024;0.6297;
1340.4000;0.6015;0.6348;
1340.7000;0.6024;0.6323;
1341.0000;0.5999;0.6272;
1341.3000;0.5950;0.6096;
1341.6000;0.5918;0.6020;
1341.9000;0.5999;0.6373;
1342.2000;0.6015;0.6449;
1342.5000;0.5991;0.6449;
1342.8000;0.6015;0.6499;
1343.1000;0.5999;0.6474;
1343.4000;0.6007;0.6524;
1343.7000;0.5999;0.6474;
1344.0000;0.6007;0.6474;
1344.3000;0.6024;0.6474;
1344.6000;0.5991;0.6524;
1344.9000;0.6024;0.6575;
1345.2000;0.6024;0.6474;
1345.5000;0.5991;0.6373;
1345.8000;0.6048;0.6499;
1346.1000;0.6032;0.6449;
1346.4000;0.6024;0.6423;
1346.7000;0.6024;0.6348;
1347.0000;0.6007;0.6323;
1347.3000;0.6015;0.6297;
1347.6000;0.6040;0.6348;
1347.9000;0.5999;0.6297;
1348.2000;0.6007;0.6373;
1348.5000;0.5999;0.6398;
1348.8000;0.6024;0.6449;
1349.1000;0.6007;0.6348;
1349.4000;0.6024;0.6323;
1349.7000;0.6040;0.6373;
1350.0000;0.6040;0.6398;
1350.3000;0.6032;0.6449;
1350.6000;0.6015;0.6398;
1350.9000;0.5950;0.6197;
1351.2000;0.6040;0.6348;
1351.5000;0.6007;0.6373;
1351.8000;0.6040;0.6423;
1352.1000;0.6040;0.6373;
1352.4000;0.6007;0.6323;
1352.7000;0.6032;0.6373;
1353.0000;0.6007;0.6348;
1353.3000;0.5999;0.6373;
1353.6000;0.6024;0.6449;
1353.9000;0.5934;0.6247;
1354.2000;0.5967;0.6297;
1354.5000;0.6007;0.6373;
1354.8000;0.6015;0.6449;
1355.1000;0.6007;0.6398;
1355.4000;0.5983;0.6323;
1355.7000;0.5999;0.6297;
1356.0000;0.6015;0.6297;
1356.3000;0.6024;0.6398;
1356.6000;0.5999;0.6323;
1356.9000;0.6007;0.6373;
1357.2000;0.6015;0.6398;
1357.5000;0.6007;0.6398;
1357.8000;0.6007;0.6373;
1358.1000;0.5999;0.6348;
1358.4000;0.6015;0.6423;
1358.7000;0.5991;0.6398;
1359.0000;0.5991;0.6373;
1359.3000;0.6015;0.6474;
1359.6000;0.5991;0.6348;
1359.9000;0.6032;0.6423;
1360.2000;0.6015;0.6348;
1360.5000;0.6024;0.6297;
1360.8000;0.6024;0.6297;
1361.1000;0.6007;0.6323;
1361.4000;0.6015;0.6297;
1361.7000;0.6015;0.6272;
1362.0000;0.6032;0.6272;
1362.3000;0.5999;0.6247;
1362.6000;0.6024;0.6297;
1362.9000;0.6007;0.6247;
1363.2000;0.6007;0.6197;
1363.5000;0.6024;0.6172;
1363.8000;0.6015;0.6172;
1364.1000;0.5999;0.6146;
1364.4000;0.6048;0.6272;
1364.7000;0.6015;0.6172;
1365.0000;0.6007;0.6121;
1365.3000;0.6007;0.6146;
1365.6000;0.6007;0.6146;
1365.9000;0.5999;0.6020;
1366.2000;0.6032;0.6020;
1366.5000;0.6032;0.6071;
1366.8000;0.6007;0.6046;
1367.1000;0.6024;0.6121;
1367.4000;0.6015;0.6096;
1367.7000;0.6015;0.6071;
1368.0000;0.6007;0.6071;
1368.3000;0.6015;0.6071;
1368.6000;0.6015;0.6121;
1368.9000;0.6007;0.6146;
1369.2000;0.5999;0.6121;
1369.5000;0.6007;0.6046;
1369.8000;0.6056;0.6197;
1370.1000;0.5999;0.6020;
1370.4000;0.6007;0.6071;
1370.7000;0.6015;0.6071;
1371.0000;0.5999;0.6096;
1371.3000;0.6007;0.6146;
1371.6000;0.6024;0.6172;
1371.9000;0.6015;0.6222;
1372.2000;0.6024;0.6247;
1372.5000;0.6024;0.6272;
1372.8000;0.6015;0.6297;
1373.1000;0.6056;0.6373;
1373.4000;0.6040;0.6373;
1373.7000;0.6015;0.6373;
1374.0000;0.5991;0.6247;
1374.3000;0.6024;0.6297;
1374.6000;0.6032;0.6272;
1374.9000;0.6015;0.6272;
1375.2000;0.6024;0.6323;
1375.5000;0.6007;0.6398;
1375.8000;0.6024;0.6549;
1376.1000;0.6007;0.6524;
1376.4000;0.5999;0.6549;
1376.7000;0.6007;0.6549;
1377.0000;0.6032;0.6524;
1377.3000;0.6015;0.6499;
1377.6000;0.6007;0.6474;
1377.9000;0.6015;0.6423;
1378.2000;0.6072;0.6449;
1378.5000;0.6015;0.6323;
1378.8000;0.6015;0.6272;
1379.1000;0.6024;0.6323;
1379.4000;0.5999;0.6222;
1379.7000;0.6024;0.6247;
1380.0000;0.6015;0.6348;
1380.3000;0.6007;0.6323;
1380.6000;0.6007;0.6348;
1380.9000;0.6015;0.6398;
1381.2000;0.6015;0.6398;
1381.5000;0.6032;0.6373;
1381.8000;0.6007;0.6297;
1382.1000;0.6007;0.6197;
1382.4000;0.6024;0.6172;
1382.7000;0.6015;0.6121;
1383.0000;0.6007;0.6121;
1383.3000;0.6024;0.6146;
1383.6000;0.6015;0.6172;
1383.9000;0.5999;0.6071;
1384.2000;0.6015;0.6222;
1384.5000;0.6024;0.6197;
1384.8000;0.6024;0.6297;
1385.1000;0.6032;0.6348;
1385.4000;0.6024;0.6373;
1385.7000;0.6007;0.6373;
1386.0000;0.6007;0.6297;
1386.3000;0.6007;0.6247;
1386.6000;0.6015;0.6323;
1386.9000;0.6015;0.6348;
1387.2000;0.6007;0.6398;
1387.5000;0.6007;0.6449;
1387.8000;0.6007;0.6474;
1388.1000;0.6015;0.6575;
1388.4000;0.6024;0.6625;
1388.7000;0.6024;0.6600;
1389.0000;0.6015;0.6549;
1389.3000;0.6015;0.6524;
1389.6000;0.5999;0.6423;
1389.9000;0.5999;0.6348;
1390.2000;0.6024;0.6323;
1390.5000;0.6007;0.6323;
1390.8000;0.6015;0.6373;
1391.1000;0.6015;0.6398;
1391.4000;0.6007;0.6423;
1391.7000;0.6007;0.6373;
1392.0000;0.6007;0.6423;
1392.3000;0.6024;0.6449;
1392.6000;0.6032;0.6449;
1392.9000;0.6007;0.6423;
1393.2000;0.6007;0.6423;
1393.5000;0.6024;0.6499;
1393.8000;0.6032;0.6549;
1394.1000;0.5999;0.6449;
1394.4000;0.6056;0.6575;
1394.7000;0.6015;0.6398;
1395.0000;0.6007;0.6373;
1395.3000;0.6007;0.6373;
1395.6000;0.5999;0.6348;
1395.9000;0.6015;0.6474;
1396.2000;0.6024;0.6423;
1396.5000;0.6072;0.6575;
1396.8000;0.5975;0.6373;
1397.1000;0.6007;0.6449;
1397.4000;0.6007;0.6423;
1397.7000;0.6024;0.6474;
1398.0000;0.6007;0.6499;
1398.3000;0.6015;0.6474;
1398.6000;0.6007;0.6423;
1398.9000;0.6024;0.6373;
1399.2000;0.5999;0.6398;
1399.5000;0.6015;0.6348;
1399.8000;0.6007;0.6323;
