time/ms;Fluo/V;P700 deltaI/I x10³;
-199.8000;0.7139;1.5759;
-199.5000;0.7114;1.5661;
-199.2000;0.7163;1.5783;
-198.9000;0.7155;1.5783;
-198.6000;0.7155;1.5759;
-198.3000;0.7131;1.5759;
-198.0000;0.7171;1.5856;
-197.7000;0.7147;1.5831;
-197.4000;0.7147;1.5807;
-197.1000;0.7139;1.5734;
-196.8000;0.7131;1.5710;
-196.5000;0.7155;1.5783;
-196.2000;0.7155;1.5783;
-195.9000;0.7147;1.5710;
-195.6000;0.7147;1.5759;
-195.3000;0.7147;1.5759;
-195.0000;0.7179;1.5807;
-194.7000;0.7139;1.5661;
-194.4000;0.7155;1.5686;
-194.1000;0.7155;1.5734;
-193.8000;0.7171;1.5734;
-193.5000;0.7155;1.5637;
-193.2000;0.7155;1.5710;
-192.9000;0.7163;1.5734;
-192.6000;0.7155;1.5734;
-192.3000;0.7139;1.5783;
-192.0000;0.7147;1.5807;
-191.7000;0.7155;1.5831;
-191.4000;0.7163;1.5880;
-191.1000;0.7139;1.5783;
-190.8000;0.7155;1.5734;
-190.5000;0.7188;1.5904;
-190.2000;0.7220;1.5977;
-189.9000;0.7163;1.5856;
-189.6000;0.7155;1.5759;
-189.3000;0.7082;1.5589;
-189.0000;0.7212;1.5904;
-188.7000;0.7147;1.5783;
-188.4000;0.7147;1.5759;
-188.1000;0.7147;1.5831;
-187.8000;0.7066;1.5661;
-187.5000;0.7236;1.6123;
-187.2000;0.7155;1.5929;
-186.9000;0.7155;1.5759;
-186.6000;0.7212;1.5904;
-186.3000;0.7155;1.5686;
-186.0000;0.7147;1.5710;
-185.7000;0.7123;1.5686;
-185.4000;0.7155;1.5759;
-185.1000;0.7147;1.5831;
-184.8000;0.7139;1.5856;
-184.5000;0.7163;1.5977;
-184.2000;0.7139;1.5904;
-183.9000;0.7245;1.6123;
-183.6000;0.7155;1.5929;
-183.3000;0.7098;1.5686;
-183.0000;0.7155;1.5856;
-182.7000;0.7171;1.5929;
-182.4000;0.7163;1.5904;
-182.1000;0.7163;1.5929;
-181.8000;0.7155;1.5831;
-181.5000;0.7188;1.5904;
-181.2000;0.7147;1.5686;
-180.9000;0.7163;1.5686;
-180.6000;0.7171;1.5686;
-180.3000;0.7090;1.5516;
-180.0000;0.7155;1.5710;
-179.7000;0.7204;1.5831;
-179.4000;0.7074;1.5564;
-179.1000;0.7163;1.5807;
-178.8000;0.7155;1.5856;
-178.5000;0.7098;1.5661;
-178.2000;0.7098;1.5686;
-177.9000;0.7147;1.5783;
-177.6000;0.7131;1.5856;
-177.3000;0.7179;1.5977;
-177.0000;0.7155;1.5904;
-176.7000;0.7139;1.5831;
-176.4000;0.7090;1.5661;
-176.1000;0.7106;1.5710;
-175.8000;0.7123;1.5710;
-175.5000;0.7155;1.5759;
-175.2000;0.7106;1.5589;
-174.9000;0.7155;1.5661;
-174.6000;0.7155;1.5734;
-174.3000;0.7147;1.5783;
-174.0000;0.7236;1.5953;
-173.7000;0.7147;1.5637;
-173.4000;0.7220;1.5856;
-173.1000;0.7171;1.5710;
-172.8000;0.7139;1.5686;
-172.5000;0.7106;1.5589;
-172.2000;0.7131;1.5759;
-171.9000;0.7155;1.5783;
-171.6000;0.7196;1.5807;
-171.3000;0.7155;1.5613;
-171.0000;0.7155;1.5734;
-170.7000;0.7123;1.5686;
-170.4000;0.7155;1.5783;
-170.1000;0.7147;1.5734;
-169.8000;0.7188;1.5783;
-169.5000;0.7139;1.5710;
-169.2000;0.7123;1.5686;
-168.9000;0.7139;1.5734;
-168.6000;0.7147;1.5807;
-168.3000;0.7147;1.5856;
-168.0000;0.7139;1.5904;
-167.7000;0.7155;1.5929;
-167.4000;0.7171;1.5904;
-167.1000;0.7188;1.5880;
-166.8000;0.7163;1.5880;
-166.5000;0.7155;1.5929;
-166.2000;0.7139;1.5977;
-165.9000;0.7204;1.5953;
-165.6000;0.7220;1.6026;
-165.3000;0.7155;1.5807;
-165.0000;0.7179;1.5880;
-164.7000;0.7139;1.5783;
-164.4000;0.7074;1.5637;
-164.1000;0.7139;1.5904;
-163.8000;0.7123;1.5807;
-163.5000;0.7155;1.5929;
-163.2000;0.7155;1.5807;
-162.9000;0.7098;1.5710;
-162.6000;0.7188;1.5856;
-162.3000;0.7139;1.5759;
-162.0000;0.7155;1.5831;
-161.7000;0.7147;1.5734;
-161.4000;0.7147;1.5637;
-161.1000;0.7155;1.5759;
-160.8000;0.7131;1.5661;
-160.5000;0.7147;1.5686;
-160.2000;0.7155;1.5734;
-159.9000;0.7139;1.5710;
-159.6000;0.7098;1.5686;
-159.3000;0.7212;1.5929;
-159.0000;0.7147;1.5856;
-158.7000;0.7155;1.5831;
-158.4000;0.7163;1.5831;
-158.1000;0.7171;1.5856;
-157.8000;0.7131;1.5759;
-157.5000;0.7147;1.5734;
-157.2000;0.7155;1.5710;
-156.9000;0.7179;1.5710;
-156.6000;0.7155;1.5783;
-156.3000;0.7171;1.5710;
-156.0000;0.7155;1.5734;
-155.7000;0.7155;1.5710;
-155.4000;0.7155;1.5759;
-155.1000;0.7155;1.5734;
-154.8000;0.7163;1.5710;
-154.5000;0.7163;1.5686;
-154.2000;0.7147;1.5637;
-153.9000;0.7163;1.5686;
-153.6000;0.7147;1.5686;
-153.3000;0.7155;1.5686;
-153.0000;0.7155;1.5686;
-152.7000;0.7155;1.5759;
-152.4000;0.7147;1.5783;
-152.1000;0.7163;1.5856;
-151.8000;0.7179;1.5953;
-151.5000;0.7188;1.5904;
-151.2000;0.7155;1.5880;
-150.9000;0.7098;1.5759;
-150.6000;0.7147;1.5977;
-150.3000;0.7139;1.5977;
-150.0000;0.7147;1.5880;
-149.7000;0.7139;1.5856;
-149.4000;0.7098;1.5734;
-149.1000;0.7139;1.5783;
-148.8000;0.7188;1.5807;
-148.5000;0.7147;1.5759;
-148.2000;0.7147;1.5783;
-147.9000;0.7123;1.5734;
-147.6000;0.7155;1.5807;
-147.3000;0.7139;1.5710;
-147.0000;0.7147;1.5686;
-146.7000;0.7155;1.5686;
-146.4000;0.7220;1.5904;
-146.1000;0.7163;1.5904;
-145.8000;0.7163;1.5904;
-145.5000;0.7204;1.6123;
-145.2000;0.7163;1.5880;
-144.9000;0.7131;1.5783;
-144.6000;0.7155;1.5807;
-144.3000;0.7155;1.5831;
-144.0000;0.7188;1.5929;
-143.7000;0.7147;1.5807;
-143.4000;0.7123;1.5734;
-143.1000;0.7147;1.5783;
-142.8000;0.7147;1.5856;
-142.5000;0.7131;1.5686;
-142.2000;0.7139;1.5661;
-141.9000;0.7098;1.5540;
-141.6000;0.7090;1.5516;
-141.3000;0.7155;1.5589;
-141.0000;0.7098;1.5443;
-140.7000;0.7147;1.5589;
-140.4000;0.7106;1.5613;
-140.1000;0.7236;1.6074;
-139.8000;0.7139;1.5856;
-139.5000;0.7196;1.6026;
-139.2000;0.7147;1.5880;
-138.9000;0.7155;1.5977;
-138.6000;0.7147;1.5953;
-138.3000;0.7155;1.6001;
-138.0000;0.7163;1.6001;
-137.7000;0.7163;1.6026;
-137.4000;0.7147;1.6050;
-137.1000;0.7147;1.6001;
-136.8000;0.7155;1.5977;
-136.5000;0.7147;1.6001;
-136.2000;0.7131;1.5904;
-135.9000;0.7139;1.5953;
-135.6000;0.7139;1.5953;
-135.3000;0.7139;1.5953;
-135.0000;0.7147;1.5856;
-134.7000;0.7163;1.5856;
-134.4000;0.7155;1.5880;
-134.1000;0.7131;1.5783;
-133.8000;0.7139;1.5759;
-133.5000;0.7155;1.5783;
-133.2000;0.7139;1.5710;
-132.9000;0.7139;1.5710;
-132.6000;0.7147;1.5710;
-132.3000;0.7147;1.5613;
-132.0000;0.7147;1.5564;
-131.7000;0.7147;1.5734;
-131.4000;0.7163;1.5904;
-131.1000;0.7163;1.5953;
-130.8000;0.7155;1.6001;
-130.5000;0.7155;1.5929;
-130.2000;0.7155;1.6001;
-129.9000;0.7171;1.6001;
-129.6000;0.7139;1.5953;
-129.3000;0.7147;1.5904;
-129.0000;0.7131;1.5880;
-128.7000;0.7139;1.5929;
-128.4000;0.7155;1.5929;
-128.1000;0.7139;1.5880;
-127.8000;0.7131;1.5904;
-127.5000;0.7147;1.5904;
-127.2000;0.7155;1.5953;
-126.9000;0.7147;1.5929;
-126.6000;0.7155;1.5904;
-126.3000;0.7147;1.5929;
-126.0000;0.7147;1.5856;
-125.7000;0.7163;1.6001;
-125.4000;0.7139;1.6026;
-125.1000;0.7179;1.6074;
-124.8000;0.7163;1.6099;
-124.5000;0.7131;1.5904;
-124.2000;0.7139;1.5880;
-123.9000;0.7196;1.6074;
-123.6000;0.7106;1.5783;
-123.3000;0.7163;1.5904;
-123.0000;0.7171;1.5880;
-122.7000;0.7155;1.5880;
-122.4000;0.7163;1.5880;
-122.1000;0.7139;1.5710;
-121.8000;0.7171;1.5710;
-121.5000;0.7163;1.5686;
-121.2000;0.7155;1.5710;
-120.9000;0.7179;1.5734;
-120.6000;0.7139;1.5613;
-120.3000;0.7155;1.5686;
-120.0000;0.7123;1.5710;
-119.7000;0.7147;1.5783;
-119.4000;0.7155;1.5856;
-119.1000;0.7171;1.5831;
-118.8000;0.7155;1.5759;
-118.5000;0.7163;1.5686;
-118.2000;0.7179;1.5734;
-117.9000;0.7155;1.5759;
-117.6000;0.7188;1.5856;
-117.3000;0.7155;1.5831;
-117.0000;0.7147;1.5880;
-116.7000;0.7163;1.5904;
-116.4000;0.7114;1.5759;
-116.1000;0.7204;1.6001;
-115.8000;0.7139;1.5856;
-115.5000;0.7147;1.5856;
-115.2000;0.7155;1.5807;
-114.9000;0.7139;1.5807;
-114.6000;0.7163;1.5904;
-114.3000;0.7163;1.6001;
-114.0000;0.7171;1.6026;
-113.7000;0.7131;1.6001;
-113.4000;0.7139;1.6026;
-113.1000;0.7131;1.6026;
-112.8000;0.7155;1.6123;
-112.5000;0.7155;1.6171;
-112.2000;0.7212;1.6293;
-111.9000;0.7155;1.6171;
-111.6000;0.7147;1.6171;
-111.3000;0.7155;1.6196;
-111.0000;0.7139;1.6171;
-110.7000;0.7139;1.6099;
-110.4000;0.7147;1.6099;
-110.1000;0.7155;1.6026;
-109.8000;0.7163;1.5953;
-109.5000;0.7179;1.6026;
-109.2000;0.7171;1.6026;
-108.9000;0.7163;1.5977;
-108.6000;0.7147;1.5953;
-108.3000;0.7155;1.6026;
-108.0000;0.7171;1.6026;
-107.7000;0.7163;1.5904;
-107.4000;0.7139;1.5904;
-107.1000;0.7155;1.5904;
-106.8000;0.7163;1.5880;
-106.5000;0.7171;1.5880;
-106.2000;0.7139;1.5856;
-105.9000;0.7163;1.5929;
-105.6000;0.7147;1.5904;
-105.3000;0.7163;1.5880;
-105.0000;0.7155;1.5880;
-104.7000;0.7147;1.5856;
-104.4000;0.7147;1.5807;
-104.1000;0.7155;1.5856;
-103.8000;0.7139;1.5807;
-103.5000;0.7123;1.5759;
-103.2000;0.7163;1.5856;
-102.9000;0.7171;1.5856;
-102.6000;0.7155;1.5783;
-102.3000;0.7139;1.5734;
-102.0000;0.7147;1.5759;
-101.7000;0.7139;1.5759;
-101.4000;0.7163;1.5856;
-101.1000;0.7147;1.5904;
-100.8000;0.7155;1.5953;
-100.5000;0.7155;1.5856;
-100.2000;0.7171;1.5880;
-99.9000;0.7147;1.5904;
-99.6000;0.7147;1.5977;
-99.3000;0.7212;1.6074;
-99.0000;0.7139;1.5880;
-98.7000;0.7155;1.5856;
-98.4000;0.7196;1.6026;
-98.1000;0.7163;1.5831;
-97.8000;0.7155;1.5856;
-97.5000;0.7147;1.5856;
-97.2000;0.7131;1.5759;
-96.9000;0.7131;1.5734;
-96.6000;0.7147;1.5710;
-96.3000;0.7139;1.5686;
-96.0000;0.7163;1.5734;
-95.7000;0.7139;1.5686;
-95.4000;0.7131;1.5686;
-95.1000;0.7155;1.5734;
-94.8000;0.7147;1.5710;
-94.5000;0.7171;1.5686;
-94.2000;0.7147;1.5637;
-93.9000;0.7155;1.5710;
-93.6000;0.7155;1.5759;
-93.3000;0.7139;1.5783;
-93.0000;0.7114;1.5734;
-92.7000;0.7147;1.5686;
-92.4000;0.7196;1.5710;
-92.1000;0.7147;1.5613;
-91.8000;0.7123;1.5686;
-91.5000;0.7155;1.5904;
-91.2000;0.7147;1.5856;
-90.9000;0.7163;1.5904;
-90.6000;0.7131;1.5831;
-90.3000;0.7163;1.5856;
-90.0000;0.7171;1.5929;
-89.7000;0.7147;1.5831;
-89.4000;0.7155;1.5904;
-89.1000;0.7131;1.5880;
-88.8000;0.7204;1.6099;
-88.5000;0.7155;1.6001;
-88.2000;0.7204;1.6074;
-87.9000;0.7155;1.5904;
-87.6000;0.7155;1.5929;
-87.3000;0.7139;1.5880;
-87.0000;0.7139;1.5831;
-86.7000;0.7139;1.5759;
-86.4000;0.7155;1.5856;
-86.1000;0.7188;1.5953;
-85.8000;0.7131;1.5710;
-85.5000;0.7139;1.5637;
-85.2000;0.7212;1.5904;
-84.9000;0.7147;1.5759;
-84.6000;0.7147;1.5783;
-84.3000;0.7114;1.5661;
-84.0000;0.7163;1.5759;
-83.7000;0.7139;1.5734;
-83.4000;0.7163;1.5759;
-83.1000;0.7139;1.5710;
-82.8000;0.7147;1.5710;
-82.5000;0.7163;1.5686;
-82.2000;0.7196;1.5783;
-81.9000;0.7114;1.5637;
-81.6000;0.7139;1.5710;
-81.3000;0.7147;1.5710;
-81.0000;0.7163;1.5807;
-80.7000;0.7139;1.5710;
-80.4000;0.7163;1.5686;
-80.1000;0.7147;1.5686;
-79.8000;0.7155;1.5710;
-79.5000;0.7204;1.5807;
-79.2000;0.7155;1.5613;
-78.9000;0.7139;1.5613;
-78.6000;0.7163;1.5686;
-78.3000;0.7139;1.5564;
-78.0000;0.7139;1.5492;
-77.7000;0.7106;1.5394;
-77.4000;0.7139;1.5613;
-77.1000;0.7163;1.5661;
-76.8000;0.7147;1.5540;
-76.5000;0.7106;1.5394;
-76.2000;0.7163;1.5516;
-75.9000;0.7163;1.5564;
-75.6000;0.7155;1.5467;
-75.3000;0.7147;1.5492;
-75.0000;0.7147;1.5516;
-74.7000;0.7139;1.5394;
-74.4000;0.7155;1.5467;
-74.1000;0.7147;1.5467;
-73.8000;0.7082;1.5297;
-73.5000;0.7155;1.5492;
-73.2000;0.7163;1.5564;
-72.9000;0.7139;1.5589;
-72.6000;0.7139;1.5613;
-72.3000;0.7204;1.5783;
-72.0000;0.7163;1.5710;
-71.7000;0.7155;1.5783;
-71.4000;0.7155;1.5831;
-71.1000;0.7163;1.5783;
-70.8000;0.7123;1.5613;
-70.5000;0.7147;1.5661;
-70.2000;0.7188;1.5661;
-69.9000;0.7139;1.5613;
-69.6000;0.7131;1.5637;
-69.3000;0.7163;1.5661;
-69.0000;0.7147;1.5613;
-68.7000;0.7139;1.5613;
-68.4000;0.7155;1.5637;
-68.1000;0.7155;1.5613;
-67.8000;0.7147;1.5589;
-67.5000;0.7155;1.5516;
-67.2000;0.7147;1.5516;
-66.9000;0.7131;1.5589;
-66.6000;0.7074;1.5564;
-66.3000;0.7123;1.5734;
-66.0000;0.7123;1.5661;
-65.7000;0.7147;1.5613;
-65.4000;0.7131;1.5564;
-65.1000;0.7139;1.5492;
-64.8000;0.7155;1.5492;
-64.5000;0.7147;1.5564;
-64.2000;0.7147;1.5637;
-63.9000;0.7204;1.5759;
-63.6000;0.7179;1.5710;
-63.3000;0.7163;1.5661;
-63.0000;0.7155;1.5661;
-62.7000;0.7245;1.5929;
-62.4000;0.7131;1.5661;
-62.1000;0.7171;1.5759;
-61.8000;0.7163;1.5880;
-61.5000;0.7131;1.5807;
-61.2000;0.7106;1.5783;
-60.9000;0.7131;1.5904;
-60.6000;0.7155;1.5953;
-60.3000;0.7188;1.6001;
-60.0000;0.7139;1.5856;
-59.7000;0.7106;1.5783;
-59.4000;0.7131;1.5807;
-59.1000;0.7139;1.5880;
-58.8000;0.7131;1.5831;
-58.5000;0.7131;1.5807;
-58.2000;0.7163;1.5904;
-57.9000;0.7163;1.5831;
-57.6000;0.7147;1.5807;
-57.3000;0.7139;1.5831;
-57.0000;0.7147;1.5904;
-56.7000;0.7163;1.5831;
-56.4000;0.7106;1.5686;
-56.1000;0.7147;1.5783;
-55.8000;0.7147;1.5783;
-55.5000;0.7163;1.5831;
-55.2000;0.7155;1.5807;
-54.9000;0.7139;1.5807;
-54.6000;0.7123;1.5734;
-54.3000;0.7139;1.5710;
-54.0000;0.7147;1.5710;
-53.7000;0.7155;1.5661;
-53.4000;0.7139;1.5661;
-53.1000;0.7147;1.5686;
-52.8000;0.7139;1.5661;
-52.5000;0.7155;1.5710;
-52.2000;0.7139;1.5686;
-51.9000;0.7155;1.5734;
-51.6000;0.7163;1.5807;
-51.3000;0.7147;1.5807;
-51.0000;0.7163;1.5831;
-50.7000;0.7098;1.5564;
-50.4000;0.7139;1.5686;
-50.1000;0.7147;1.5759;
-49.8000;0.7147;1.5734;
-49.5000;0.7155;1.5783;
-49.2000;0.7163;1.5807;
-48.9000;0.7147;1.5783;
-48.6000;0.7155;1.5783;
-48.3000;0.7139;1.5710;
-48.0000;0.7188;1.5807;
-47.7000;0.7163;1.5710;
-47.4000;0.7106;1.5589;
-47.1000;0.7147;1.5661;
-46.8000;0.7147;1.5661;
-46.5000;0.7139;1.5613;
-46.2000;0.7155;1.5613;
-45.9000;0.7163;1.5613;
-45.6000;0.7098;1.5467;
-45.3000;0.7155;1.5637;
-45.0000;0.7179;1.5759;
-44.7000;0.7131;1.5613;
-44.4000;0.7147;1.5613;
-44.1000;0.7155;1.5661;
-43.8000;0.7147;1.5637;
-43.5000;0.7155;1.5637;
-43.2000;0.7123;1.5661;
-42.9000;0.7131;1.5710;
-42.6000;0.7171;1.5831;
-42.3000;0.7155;1.5734;
-42.0000;0.7204;1.5953;
-41.7000;0.7171;1.5734;
-41.4000;0.7147;1.5734;
-41.1000;0.7163;1.5759;
-40.8000;0.7204;1.5807;
-40.5000;0.7155;1.5759;
-40.2000;0.7171;1.5759;
-39.9000;0.7147;1.5783;
-39.6000;0.7155;1.5783;
-39.3000;0.7155;1.5783;
-39.0000;0.7163;1.5734;
-38.7000;0.7163;1.5734;
-38.4000;0.7155;1.5661;
-38.1000;0.7196;1.5759;
-37.8000;0.7236;1.5856;
-37.5000;0.7171;1.5589;
-37.2000;0.7163;1.5613;
-36.9000;0.7139;1.5492;
-36.6000;0.7155;1.5540;
-36.3000;0.7188;1.5686;
-36.0000;0.7155;1.5589;
-35.7000;0.7155;1.5589;
-35.4000;0.7147;1.5661;
-35.1000;0.7163;1.5734;
-34.8000;0.7236;1.5953;
-34.5000;0.7155;1.5807;
-34.2000;0.7139;1.5734;
-33.9000;0.7163;1.5831;
-33.6000;0.7139;1.5807;
-33.3000;0.7090;1.5686;
-33.0000;0.7139;1.5783;
-32.7000;0.7155;1.5783;
-32.4000;0.7163;1.5807;
-32.1000;0.7147;1.5710;
-31.8000;0.7171;1.5686;
-31.5000;0.7139;1.5564;
-31.2000;0.7163;1.5589;
-30.9000;0.7155;1.5661;
-30.6000;0.7155;1.5783;
-30.3000;0.7147;1.5783;
-30.0000;0.7147;1.5831;
-29.7000;0.7188;1.5904;
-29.4000;0.7163;1.5710;
-29.1000;0.7139;1.5661;
-28.8000;0.7131;1.5589;
-28.5000;0.7123;1.5613;
-28.2000;0.7139;1.5589;
-27.9000;0.7155;1.5564;
-27.6000;0.7155;1.5613;
-27.3000;0.7188;1.5637;
-27.0000;0.7147;1.5492;
-26.7000;0.7131;1.5419;
-26.4000;0.7163;1.5419;
-26.1000;0.7147;1.5492;
-25.8000;0.7188;1.5613;
-25.5000;0.7123;1.5564;
-25.2000;0.7155;1.5734;
-24.9000;0.7147;1.5710;
-24.6000;0.7188;1.5807;
-24.3000;0.7155;1.5759;
-24.0000;0.7123;1.5710;
-23.7000;0.7179;1.5783;
-23.4000;0.7139;1.5613;
-23.1000;0.7123;1.5637;
-22.8000;0.7147;1.5661;
-22.5000;0.7106;1.5613;
-22.2000;0.7179;1.5831;
-21.9000;0.7090;1.5637;
-21.6000;0.7171;1.5759;
-21.3000;0.7155;1.5734;
-21.0000;0.7155;1.5710;
-20.7000;0.7147;1.5710;
-20.4000;0.7147;1.5734;
-20.1000;0.7139;1.5710;
-19.8000;0.7147;1.5759;
-19.5000;0.7147;1.5759;
-19.2000;0.7163;1.5734;
-18.9000;0.7131;1.5783;
-18.6000;0.7155;1.5880;
-18.3000;0.7139;1.5807;
-18.0000;0.7139;1.5831;
-17.7000;0.7155;1.5880;
-17.4000;0.7131;1.5734;
-17.1000;0.7139;1.5661;
-16.8000;0.7163;1.5686;
-16.5000;0.7163;1.5759;
-16.2000;0.7163;1.5831;
-15.9000;0.7163;1.5856;
-15.6000;0.7147;1.5880;
-15.3000;0.7147;1.5783;
-15.0000;0.7139;1.5759;
-14.7000;0.7123;1.5807;
-14.4000;0.7171;1.5880;
-14.1000;0.7139;1.5807;
-13.8000;0.7155;1.5783;
-13.5000;0.7147;1.5807;
-13.2000;0.7139;1.5759;
-12.9000;0.7131;1.5710;
-12.6000;0.7155;1.5734;
-12.3000;0.7139;1.5710;
-12.0000;0.7204;1.5831;
-11.7000;0.7163;1.5734;
-11.4000;0.7155;1.5783;
-11.1000;0.7163;1.5807;
-10.8000;0.7179;1.5831;
-10.5000;0.7188;1.5807;
-10.2000;0.7163;1.5759;
-9.9000;0.7139;1.5661;
-9.6000;0.7139;1.5807;
-9.3000;0.7139;1.5831;
-9.0000;0.7139;1.5783;
-8.7000;0.7123;1.5783;
-8.4000;0.7098;1.5783;
-8.1000;0.7139;1.5856;
-7.8000;0.7106;1.5807;
-7.5000;0.7163;1.5929;
-7.2000;0.7139;1.5904;
-6.9000;0.7147;1.5880;
-6.6000;0.7155;1.5904;
-6.3000;0.7147;1.5783;
-6.0000;0.7155;1.5710;
-5.7000;0.7147;1.5783;
-5.4000;0.7155;1.5831;
-5.1000;0.7155;1.5856;
-4.8000;0.7131;1.5783;
-4.5000;0.7171;1.5953;
-4.2000;0.7163;1.6050;
-3.9000;0.7139;1.5977;
-3.6000;0.7147;1.6026;
-3.3000;0.7163;1.5977;
-3.0000;0.7163;1.5856;
-2.7000;0.7147;1.5783;
-2.4000;0.7147;1.5807;
-2.1000;0.7131;1.5759;
-1.8000;0.7179;1.5759;
-1.5000;0.7155;1.5637;
-1.2000;0.7188;1.5734;
-0.9000;0.7163;1.5710;
-0.6000;0.7163;1.5661;
-0.3000;0.7155;1.5661;
0.0000;0.7155;1.5661;
0.3000;0.7326;1.5783;
0.6000;0.7660;1.6317;
0.9000;0.7888;1.6754;
1.2000;0.8083;1.7118;
1.5000;0.8221;1.7458;
1.8000;0.8311;1.7725;
2.1000;0.8433;1.8041;
2.4000;0.8523;1.8357;
2.7000;0.8604;1.8575;
3.0000;0.8612;1.8672;
3.3000;0.8702;1.8939;
3.6000;0.8751;1.9085;
3.9000;0.8775;1.9207;
4.2000;0.8816;1.9255;
4.5000;0.8881;1.9425;
4.8000;0.8938;1.9498;
5.1000;0.8930;1.9401;
5.4000;0.8970;1.9425;
5.7000;0.8987;1.9474;
6.0000;0.9003;1.9522;
6.3000;0.9035;1.9595;
6.6000;0.9052;1.9571;
6.9000;0.9076;1.9522;
7.2000;0.9101;1.9522;
7.5000;0.9101;1.9522;
7.8000;0.9044;1.9304;
8.1000;0.9223;1.9716;
8.4000;0.9166;1.9595;
8.7000;0.9206;1.9716;
9.0000;0.9223;1.9716;
9.3000;0.9198;1.9692;
9.6000;0.9239;1.9765;
9.9000;0.9223;1.9692;
10.2000;0.9271;1.9838;
10.5000;0.9304;1.9838;
10.8000;0.9280;1.9838;
11.1000;0.9320;1.9838;
11.4000;0.9320;1.9716;
11.7000;0.9337;1.9692;
12.0000;0.9345;1.9716;
12.3000;0.9418;1.9814;
12.6000;0.9410;1.9814;
12.9000;0.9353;1.9741;
13.2000;0.9377;1.9765;
13.5000;0.9410;1.9789;
13.8000;0.9410;1.9741;
14.1000;0.9426;1.9741;
14.4000;0.9442;1.9716;
14.7000;0.9442;1.9741;
15.0000;0.9491;1.9765;
15.3000;0.9459;1.9619;
15.6000;0.9459;1.9595;
15.9000;0.9459;1.9644;
16.2000;0.9491;1.9716;
16.5000;0.9499;1.9741;
16.8000;0.9508;1.9814;
17.1000;0.9508;1.9886;
17.4000;0.9524;1.9911;
17.7000;0.9532;1.9862;
18.0000;0.9565;1.9935;
18.3000;0.9524;1.9814;
18.6000;0.9540;1.9838;
18.9000;0.9548;1.9862;
19.2000;0.9508;1.9765;
19.5000;0.9548;1.9814;
19.8000;0.9565;1.9741;
20.1000;0.9581;1.9668;
20.4000;0.9573;1.9692;
20.7000;0.9589;1.9692;
21.0000;0.9581;1.9668;
21.3000;0.9597;1.9692;
21.6000;0.9621;1.9716;
21.9000;0.9597;1.9619;
22.2000;0.9597;1.9595;
22.5000;0.9605;1.9692;
22.8000;0.9630;1.9668;
23.1000;0.9638;1.9692;
23.4000;0.9613;1.9692;
23.7000;0.9605;1.9619;
24.0000;0.9646;1.9644;
24.3000;0.9630;1.9498;
24.6000;0.9630;1.9546;
24.9000;0.9654;1.9619;
25.2000;0.9670;1.9522;
25.5000;0.9638;1.9571;
25.8000;0.9589;1.9474;
26.1000;0.9638;1.9595;
26.4000;0.9662;1.9644;
26.7000;0.9654;1.9644;
27.0000;0.9670;1.9595;
27.3000;0.9662;1.9595;
27.6000;0.9678;1.9668;
27.9000;0.9687;1.9619;
28.2000;0.9687;1.9546;
28.5000;0.9687;1.9498;
28.8000;0.9670;1.9377;
29.1000;0.9687;1.9425;
29.4000;0.9695;1.9425;
29.7000;0.9678;1.9449;
30.0000;0.9687;1.9474;
30.3000;0.9687;1.9546;
30.6000;0.9703;1.9546;
30.9000;0.9695;1.9498;
31.2000;0.9678;1.9522;
31.5000;0.9711;1.9619;
31.8000;0.9670;1.9619;
32.1000;0.9719;1.9692;
32.4000;0.9703;1.9716;
32.7000;0.9817;1.9959;
33.0000;0.9727;1.9741;
33.3000;0.9727;1.9644;
33.6000;0.9719;1.9644;
33.9000;0.9711;1.9644;
34.2000;0.9719;1.9668;
34.5000;0.9727;1.9668;
34.8000;0.9711;1.9692;
35.1000;0.9703;1.9595;
35.4000;0.9727;1.9644;
35.7000;0.9735;1.9571;
36.0000;0.9719;1.9522;
36.3000;0.9719;1.9522;
36.6000;0.9719;1.9498;
36.9000;0.9735;1.9571;
37.2000;0.9727;1.9571;
37.5000;0.9711;1.9474;
37.8000;0.9735;1.9498;
38.1000;0.9735;1.9449;
38.4000;0.9752;1.9449;
38.7000;0.9735;1.9449;
39.0000;0.9727;1.9425;
39.3000;0.9727;1.9474;
39.6000;0.9735;1.9619;
39.9000;0.9727;1.9644;
40.2000;0.9727;1.9668;
40.5000;0.9735;1.9765;
40.8000;0.9768;1.9886;
41.1000;0.9760;1.9814;
41.4000;0.9776;1.9838;
41.7000;0.9760;1.9741;
42.0000;0.9768;1.9741;
42.3000;0.9752;1.9765;
42.6000;0.9752;1.9765;
42.9000;0.9760;1.9814;
43.2000;0.9735;1.9862;
43.5000;0.9768;1.9886;
43.8000;0.9744;1.9789;
44.1000;0.9760;1.9765;
44.4000;0.9760;1.9741;
44.7000;0.9760;1.9716;
45.0000;0.9727;1.9595;
45.3000;0.9744;1.9595;
45.6000;0.9760;1.9668;
45.9000;0.9768;1.9668;
46.2000;0.9776;1.9692;
46.5000;0.9768;1.9644;
46.8000;0.9719;1.9595;
47.1000;0.9760;1.9619;
47.4000;0.9760;1.9668;
47.7000;0.9792;1.9692;
48.0000;0.9776;1.9644;
48.3000;0.9825;1.9862;
48.6000;0.9833;1.9886;
48.9000;0.9744;1.9692;
49.2000;0.9744;1.9644;
49.5000;0.9760;1.9692;
49.8000;0.9784;1.9668;
50.1000;0.9744;1.9668;
50.4000;0.9760;1.9644;
50.7000;0.9768;1.9571;
51.0000;0.9776;1.9595;
51.3000;0.9752;1.9522;
51.6000;0.9760;1.9571;
51.9000;0.9760;1.9644;
52.2000;0.9792;1.9644;
52.5000;0.9784;1.9571;
52.8000;0.9801;1.9668;
53.1000;0.9768;1.9619;
53.4000;0.9792;1.9668;
53.7000;0.9801;1.9716;
54.0000;0.9784;1.9595;
54.3000;0.9784;1.9571;
54.6000;0.9784;1.9644;
54.9000;0.9760;1.9571;
55.2000;0.9809;1.9644;
55.5000;0.9776;1.9571;
55.8000;0.9858;1.9789;
56.1000;0.9801;1.9546;
56.4000;0.9776;1.9498;
56.7000;0.9784;1.9474;
57.0000;0.9792;1.9546;
57.3000;0.9776;1.9474;
57.6000;0.9792;1.9522;
57.9000;0.9768;1.9449;
58.2000;0.9825;1.9716;
58.5000;0.9784;1.9619;
58.8000;0.9768;1.9571;
59.1000;0.9776;1.9595;
59.4000;0.9776;1.9692;
59.7000;0.9776;1.9644;
60.0000;0.9784;1.9765;
60.3000;0.9719;1.9571;
60.6000;0.9784;1.9716;
60.9000;0.9776;1.9765;
61.2000;0.9792;1.9716;
61.5000;0.9792;1.9765;
61.8000;0.9792;1.9716;
62.1000;0.9792;1.9741;
62.4000;0.9817;1.9765;
62.7000;0.9792;1.9814;
63.0000;0.9792;1.9765;
63.3000;0.9801;1.9814;
63.6000;0.9784;1.9911;
63.9000;0.9792;1.9935;
64.2000;0.9817;1.9959;
64.5000;0.9792;1.9911;
64.8000;0.9792;1.9862;
65.1000;0.9817;1.9886;
65.4000;0.9784;1.9814;
65.7000;0.9809;1.9789;
66.0000;0.9801;1.9692;
66.3000;0.9809;1.9644;
66.6000;0.9776;1.9498;
66.9000;0.9801;1.9546;
67.2000;0.9792;1.9619;
67.5000;0.9801;1.9619;
67.8000;0.9809;1.9546;
68.1000;0.9784;1.9522;
68.4000;0.9792;1.9522;
68.7000;0.9752;1.9377;
69.0000;0.9792;1.9498;
69.3000;0.9792;1.9522;
69.6000;0.9784;1.9546;
69.9000;0.9784;1.9571;
70.2000;0.9833;1.9741;
70.5000;0.9792;1.9716;
70.8000;0.9792;1.9765;
71.1000;0.9784;1.9741;
71.4000;0.9776;1.9692;
71.7000;0.9809;1.9741;
72.0000;0.9833;1.9838;
72.3000;0.9768;1.9668;
72.6000;0.9809;1.9741;
72.9000;0.9801;1.9741;
73.2000;0.9809;1.9716;
73.5000;0.9784;1.9692;
73.8000;0.9817;1.9838;
74.1000;0.9801;1.9862;
74.4000;0.9792;1.9911;
74.7000;0.9801;1.9886;
75.0000;0.9792;1.9838;
75.3000;0.9833;1.9789;
75.6000;0.9801;1.9716;
75.9000;0.9801;1.9692;
76.2000;0.9809;1.9716;
76.5000;0.9792;1.9692;
76.8000;0.9801;1.9741;
77.1000;0.9809;1.9741;
77.4000;0.9792;1.9668;
77.7000;0.9809;1.9716;
78.0000;0.9809;1.9765;
78.3000;0.9809;1.9789;
78.6000;0.9801;1.9692;
78.9000;0.9809;1.9692;
79.2000;0.9849;1.9765;
79.5000;0.9833;1.9741;
79.8000;0.9817;1.9668;
80.1000;0.9825;1.9716;
80.4000;0.9809;1.9765;
80.7000;0.9792;1.9789;
81.0000;0.9801;1.9838;
81.3000;0.9841;1.9862;
81.6000;0.9809;1.9716;
81.9000;0.9882;1.9886;
82.2000;0.9776;1.9595;
82.5000;0.9809;1.9668;
82.8000;0.9817;1.9571;
83.1000;0.9825;1.9571;
83.4000;0.9792;1.9546;
83.7000;0.9833;1.9571;
84.0000;0.9825;1.9474;
84.3000;0.9817;1.9401;
84.6000;0.9776;1.9304;
84.9000;0.9817;1.9352;
85.2000;0.9882;1.9644;
85.5000;0.9776;1.9377;
85.8000;0.9792;1.9377;
86.1000;0.9776;1.9401;
86.4000;0.9784;1.9498;
86.7000;0.9735;1.9304;
87.0000;0.9817;1.9474;
87.3000;0.9809;1.9425;
87.6000;0.9801;1.9401;
87.9000;0.9801;1.9377;
88.2000;0.9809;1.9401;
88.5000;0.9825;1.9474;
88.8000;0.9833;1.9425;
89.1000;0.9817;1.9449;
89.4000;0.9817;1.9522;
89.7000;0.9801;1.9619;
90.0000;0.9817;1.9619;
90.3000;0.9801;1.9546;
90.6000;0.9817;1.9546;
90.9000;0.9784;1.9571;
91.2000;0.9792;1.9595;
91.5000;0.9792;1.9571;
91.8000;0.9817;1.9595;
92.1000;0.9817;1.9571;
92.4000;0.9744;1.9401;
92.7000;0.9792;1.9401;
93.0000;0.9792;1.9377;
93.3000;0.9792;1.9474;
93.6000;0.9809;1.9571;
93.9000;0.9809;1.9546;
94.2000;0.9890;1.9716;
94.5000;0.9792;1.9571;
94.8000;0.9752;1.9571;
95.1000;0.9801;1.9668;
95.4000;0.9817;1.9716;
95.7000;0.9817;1.9692;
96.0000;0.9833;1.9789;
96.3000;0.9776;1.9716;
96.6000;0.9792;1.9692;
96.9000;0.9825;1.9765;
97.2000;0.9801;1.9716;
97.5000;0.9784;1.9741;
97.8000;0.9809;1.9741;
98.1000;0.9801;1.9619;
98.4000;0.9776;1.9571;
98.7000;0.9809;1.9522;
99.0000;0.9817;1.9449;
99.3000;0.9784;1.9474;
99.6000;0.9841;1.9522;
99.9000;0.9792;1.9571;
100.2000;0.9792;1.9571;
100.5000;0.9752;1.9352;
100.8000;0.9833;1.9595;
101.1000;0.9809;1.9498;
101.4000;0.9817;1.9546;
101.7000;0.9801;1.9498;
102.0000;0.9801;1.9498;
102.3000;0.9825;1.9546;
102.6000;0.9817;1.9595;
102.9000;0.9890;1.9814;
103.2000;0.9776;1.9474;
103.5000;0.9817;1.9595;
103.8000;0.9809;1.9668;
104.1000;0.9792;1.9644;
104.4000;0.9809;1.9644;
104.7000;0.9801;1.9595;
105.0000;0.9825;1.9619;
105.3000;0.9744;1.9474;
105.6000;0.9792;1.9522;
105.9000;0.9817;1.9571;
106.2000;0.9809;1.9546;
106.5000;0.9825;1.9522;
106.8000;0.9801;1.9522;
107.1000;0.9801;1.9595;
107.4000;0.9817;1.9692;
107.7000;0.9727;1.9474;
108.0000;0.9801;1.9595;
108.3000;0.9801;1.9595;
108.6000;0.9801;1.9571;
108.9000;0.9801;1.9498;
109.2000;0.9784;1.9401;
109.5000;0.9784;1.9328;
109.8000;0.9792;1.9449;
110.1000;0.9792;1.9474;
110.4000;0.9744;1.9352;
110.7000;0.9792;1.9522;
111.0000;0.9809;1.9522;
111.3000;0.9801;1.9498;
111.6000;0.9825;1.9595;
111.9000;0.9817;1.9595;
112.2000;0.9792;1.9595;
112.5000;0.9841;1.9644;
112.8000;0.9825;1.9571;
113.1000;0.9801;1.9546;
113.4000;0.9801;1.9619;
113.7000;0.9801;1.9619;
114.0000;0.9809;1.9619;
114.3000;0.9776;1.9522;
114.6000;0.9792;1.9571;
114.9000;0.9833;1.9716;
115.2000;0.9825;1.9765;
115.5000;0.9801;1.9789;
115.8000;0.9825;1.9814;
116.1000;0.9817;1.9668;
116.4000;0.9817;1.9595;
116.7000;0.9817;1.9595;
117.0000;0.9801;1.9595;
117.3000;0.9833;1.9692;
117.6000;0.9792;1.9619;
117.9000;0.9801;1.9571;
118.2000;0.9833;1.9692;
118.5000;0.9817;1.9644;
118.8000;0.9841;1.9716;
119.1000;0.9784;1.9595;
119.4000;0.9792;1.9571;
119.7000;0.9809;1.9644;
120.0000;0.9768;1.9522;
120.3000;0.9809;1.9619;
120.6000;0.9809;1.9546;
120.9000;0.9776;1.9474;
121.2000;0.9817;1.9595;
121.5000;0.9825;1.9619;
121.8000;0.9817;1.9644;
122.1000;0.9817;1.9571;
122.4000;0.9858;1.9741;
122.7000;0.9817;1.9741;
123.0000;0.9817;1.9692;
123.3000;0.9809;1.9741;
123.6000;0.9760;1.9571;
123.9000;0.9801;1.9692;
124.2000;0.9809;1.9692;
124.5000;0.9809;1.9668;
124.8000;0.9809;1.9692;
125.1000;0.9801;1.9692;
125.4000;0.9809;1.9644;
125.7000;0.9809;1.9716;
126.0000;0.9792;1.9692;
126.3000;0.9825;1.9765;
126.6000;0.9809;1.9716;
126.9000;0.9931;2.0056;
127.2000;0.9809;1.9741;
127.5000;0.9825;1.9692;
127.8000;0.9801;1.9644;
128.1000;0.9817;1.9692;
128.4000;0.9792;1.9619;
128.7000;0.9768;1.9546;
129.0000;0.9801;1.9546;
129.3000;0.9801;1.9522;
129.6000;0.9801;1.9546;
129.9000;0.9792;1.9522;
130.2000;0.9809;1.9571;
130.5000;0.9849;1.9692;
130.8000;0.9809;1.9595;
131.1000;0.9801;1.9522;
131.4000;0.9833;1.9595;
131.7000;0.9833;1.9571;
132.0000;0.9801;1.9522;
132.3000;0.9801;1.9401;
132.6000;0.9792;1.9449;
132.9000;0.9817;1.9425;
133.2000;0.9792;1.9425;
133.5000;0.9792;1.9449;
133.8000;0.9792;1.9425;
134.1000;0.9792;1.9474;
134.4000;0.9809;1.9498;
134.7000;0.9817;1.9619;
135.0000;0.9809;1.9619;
135.3000;0.9817;1.9644;
135.6000;0.9809;1.9571;
135.9000;0.9817;1.9595;
136.2000;0.9849;1.9668;
136.5000;0.9825;1.9668;
136.8000;0.9833;1.9692;
137.1000;0.9825;1.9692;
137.4000;0.9817;1.9619;
137.7000;0.9809;1.9644;
138.0000;0.9809;1.9668;
138.3000;0.9809;1.9741;
138.6000;0.9784;1.9619;
138.9000;0.9792;1.9619;
139.2000;0.9809;1.9595;
139.5000;0.9809;1.9571;
139.8000;0.9768;1.9498;
140.1000;0.9792;1.9595;
140.4000;0.9784;1.9644;
140.7000;0.9752;1.9571;
141.0000;0.9898;1.9862;
141.3000;0.9809;1.9571;
141.6000;0.9809;1.9546;
141.9000;0.9833;1.9644;
142.2000;0.9825;1.9595;
142.5000;0.9792;1.9522;
142.8000;0.9801;1.9619;
143.1000;0.9752;1.9546;
143.4000;0.9792;1.9644;
143.7000;0.9801;1.9619;
144.0000;0.9801;1.9571;
144.3000;0.9801;1.9571;
144.6000;0.9809;1.9716;
144.9000;0.9792;1.9644;
145.2000;0.9825;1.9741;
145.5000;0.9792;1.9692;
145.8000;0.9817;1.9716;
146.1000;0.9809;1.9644;
146.4000;0.9801;1.9668;
146.7000;0.9768;1.9571;
147.0000;0.9817;1.9644;
147.3000;0.9817;1.9644;
147.6000;0.9817;1.9619;
147.9000;0.9792;1.9522;
148.2000;0.9833;1.9571;
148.5000;0.9776;1.9498;
148.8000;0.9817;1.9571;
149.1000;0.9817;1.9595;
149.4000;0.9801;1.9595;
149.7000;0.9817;1.9692;
150.0000;0.9817;1.9668;
150.3000;0.9825;1.9619;
150.6000;0.9801;1.9571;
150.9000;0.9801;1.9546;
151.2000;0.9817;1.9668;
151.5000;0.9817;1.9692;
151.8000;0.9809;1.9546;
152.1000;0.9809;1.9595;
152.4000;0.9817;1.9644;
152.7000;0.9825;1.9619;
153.0000;0.9801;1.9571;
153.3000;0.9801;1.9644;
153.6000;0.9776;1.9595;
153.9000;0.9801;1.9522;
154.2000;0.9801;1.9546;
154.5000;0.9792;1.9595;
154.8000;0.9801;1.9692;
155.1000;0.9784;1.9716;
155.4000;0.9784;1.9668;
155.7000;0.9801;1.9692;
156.0000;0.9809;1.9741;
156.3000;0.9890;1.9911;
156.6000;0.9784;1.9716;
156.9000;0.9801;1.9741;
157.2000;0.9792;1.9619;
157.5000;0.9817;1.9595;
157.8000;0.9801;1.9474;
158.1000;0.9801;1.9498;
158.4000;0.9801;1.9546;
158.7000;0.9825;1.9595;
159.0000;0.9801;1.9498;
159.3000;0.9792;1.9449;
159.6000;0.9784;1.9425;
159.9000;0.9809;1.9522;
160.2000;0.9809;1.9449;
160.5000;0.9801;1.9425;
160.8000;0.9809;1.9425;
161.1000;0.9784;1.9449;
161.4000;0.9801;1.9474;
161.7000;0.9801;1.9425;
162.0000;0.9801;1.9595;
162.3000;0.9744;1.9498;
162.6000;0.9801;1.9644;
162.9000;0.9817;1.9619;
163.2000;0.9768;1.9571;
163.5000;0.9809;1.9668;
163.8000;0.9760;1.9571;
164.1000;0.9809;1.9668;
164.4000;0.9784;1.9692;
164.7000;0.9776;1.9692;
165.0000;0.9784;1.9644;
165.3000;0.9809;1.9692;
165.6000;0.9784;1.9644;
165.9000;0.9792;1.9595;
166.2000;0.9784;1.9595;
166.5000;0.9809;1.9668;
166.8000;0.9801;1.9619;
167.1000;0.9809;1.9692;
167.4000;0.9809;1.9644;
167.7000;0.9817;1.9595;
168.0000;0.9801;1.9546;
168.3000;0.9801;1.9571;
168.6000;0.9792;1.9644;
168.9000;0.9817;1.9741;
169.2000;0.9833;1.9789;
169.5000;0.9809;1.9716;
169.8000;0.9801;1.9619;
170.1000;0.9817;1.9716;
170.4000;0.9825;1.9692;
170.7000;0.9817;1.9741;
171.0000;0.9768;1.9716;
171.3000;0.9776;1.9692;
171.6000;0.9744;1.9449;
171.9000;0.9792;1.9571;
172.2000;0.9792;1.9571;
172.5000;0.9744;1.9498;
172.8000;0.9866;1.9789;
173.1000;0.9801;1.9668;
173.4000;0.9801;1.9619;
173.7000;0.9809;1.9716;
174.0000;0.9817;1.9741;
174.3000;0.9833;1.9838;
174.6000;0.9809;1.9741;
174.9000;0.9801;1.9644;
175.2000;0.9809;1.9644;
175.5000;0.9801;1.9619;
175.8000;0.9817;1.9619;
176.1000;0.9809;1.9595;
176.4000;0.9809;1.9644;
176.7000;0.9809;1.9668;
177.0000;0.9719;1.9352;
177.3000;0.9792;1.9522;
177.6000;0.9809;1.9546;
177.9000;0.9809;1.9546;
178.2000;0.9801;1.9498;
178.5000;0.9898;1.9668;
178.8000;0.9801;1.9546;
179.1000;0.9744;1.9425;
179.4000;0.9801;1.9546;
179.7000;0.9792;1.9522;
180.0000;0.9792;1.9522;
180.3000;0.9784;1.9522;
180.6000;0.9801;1.9522;
180.9000;0.9792;1.9449;
181.2000;0.9735;1.9377;
181.5000;0.9792;1.9571;
181.8000;0.9792;1.9619;
182.1000;0.9792;1.9546;
182.4000;0.9809;1.9571;
182.7000;0.9817;1.9619;
183.0000;0.9817;1.9595;
183.3000;0.9801;1.9474;
183.6000;0.9784;1.9522;
183.9000;0.9792;1.9571;
184.2000;0.9735;1.9449;
184.5000;0.9792;1.9546;
184.8000;0.9809;1.9449;
185.1000;0.9792;1.9401;
185.4000;0.9809;1.9449;
185.7000;0.9817;1.9449;
186.0000;0.9874;1.9595;
186.3000;0.9833;1.9595;
186.6000;0.9809;1.9595;
186.9000;0.9825;1.9546;
187.2000;0.9849;1.9522;
187.5000;0.9817;1.9401;
187.8000;0.9792;1.9352;
188.1000;0.9825;1.9425;
188.4000;0.9809;1.9328;
188.7000;0.9817;1.9401;
189.0000;0.9841;1.9425;
189.3000;0.9809;1.9328;
189.6000;0.9825;1.9352;
189.9000;0.9768;1.9255;
190.2000;0.9809;1.9304;
190.5000;0.9825;1.9352;
190.8000;0.9776;1.9182;
191.1000;0.9825;1.9352;
191.4000;0.9792;1.9304;
191.7000;0.9792;1.9304;
192.0000;0.9801;1.9304;
192.3000;0.9784;1.9328;
192.6000;0.9768;1.9328;
192.9000;0.9809;1.9304;
193.2000;0.9784;1.9279;
193.5000;0.9801;1.9352;
193.8000;0.9792;1.9304;
194.1000;0.9801;1.9352;
194.4000;0.9849;1.9546;
194.7000;0.9727;1.9207;
195.0000;0.9809;1.9401;
195.3000;0.9809;1.9474;
195.6000;0.9817;1.9522;
195.9000;0.9792;1.9425;
196.2000;0.9858;1.9571;
196.5000;0.9784;1.9401;
196.8000;0.9801;1.9449;
197.1000;0.9817;1.9401;
197.4000;0.9817;1.9474;
197.7000;0.9784;1.9352;
198.0000;0.9792;1.9401;
198.3000;0.9760;1.9328;
198.6000;0.9809;1.9498;
198.9000;0.9784;1.9474;
199.2000;0.9784;1.9449;
199.5000;0.9817;1.9449;
199.8000;0.9825;1.9474;
200.1000;0.9809;1.9474;
200.4000;0.9809;1.9377;
200.7000;0.9792;1.9377;
201.0000;0.9825;1.9401;
201.3000;0.9809;1.9401;
201.6000;0.9792;1.9522;
201.9000;0.9809;1.9595;
202.2000;0.9841;1.9644;
202.5000;0.9825;1.9692;
202.8000;0.9809;1.9692;
203.1000;0.9784;1.9619;
203.4000;0.9735;1.9449;
203.7000;0.9792;1.9644;
204.0000;0.9801;1.9619;
204.3000;0.9792;1.9498;
204.6000;0.9809;1.9595;
204.9000;0.9825;1.9546;
205.2000;0.9809;1.9425;
205.5000;0.9825;1.9449;
205.8000;0.9825;1.9425;
206.1000;0.9792;1.9401;
206.4000;0.9817;1.9498;
206.7000;0.9801;1.9546;
207.0000;0.9809;1.9595;
207.3000;0.9809;1.9644;
207.6000;0.9792;1.9644;
207.9000;0.9792;1.9619;
208.2000;0.9784;1.9571;
208.5000;0.9801;1.9644;
208.8000;0.9809;1.9668;
209.1000;0.9809;1.9668;
209.4000;0.9801;1.9644;
209.7000;0.9809;1.9668;
210.0000;0.9825;1.9765;
210.3000;0.9825;1.9668;
210.6000;0.9809;1.9619;
210.9000;0.9768;1.9498;
211.2000;0.9817;1.9619;
211.5000;0.9792;1.9546;
211.8000;0.9792;1.9571;
212.1000;0.9792;1.9595;
212.4000;0.9809;1.9668;
212.7000;0.9792;1.9668;
213.0000;0.9792;1.9644;
213.3000;0.9809;1.9741;
213.6000;0.9792;1.9571;
213.9000;0.9801;1.9668;
214.2000;0.9801;1.9692;
214.5000;0.9792;1.9644;
214.8000;0.9784;1.9595;
215.1000;0.9809;1.9595;
215.4000;0.9792;1.9595;
215.7000;0.9784;1.9571;
216.0000;0.9817;1.9644;
216.3000;0.9817;1.9692;
216.6000;0.9825;1.9668;
216.9000;0.9792;1.9595;
217.2000;0.9784;1.9619;
217.5000;0.9784;1.9619;
217.8000;0.9792;1.9692;
218.1000;0.9792;1.9716;
218.4000;0.9711;1.9498;
218.7000;0.9768;1.9741;
219.0000;0.9801;1.9765;
219.3000;0.9776;1.9692;
219.6000;0.9801;1.9619;
219.9000;0.9735;1.9546;
220.2000;0.9784;1.9644;
220.5000;0.9817;1.9619;
220.8000;0.9801;1.9619;
221.1000;0.9752;1.9449;
221.4000;0.9752;1.9449;
221.7000;0.9817;1.9619;
222.0000;0.9801;1.9619;
222.3000;0.9801;1.9668;
222.6000;0.9792;1.9595;
222.9000;0.9801;1.9692;
223.2000;0.9801;1.9595;
223.5000;0.9792;1.9498;
223.8000;0.9809;1.9498;
224.1000;0.9792;1.9449;
224.4000;0.9817;1.9498;
224.7000;0.9841;1.9595;
225.0000;0.9792;1.9498;
225.3000;0.9801;1.9522;
225.6000;0.9792;1.9571;
225.9000;0.9801;1.9619;
226.2000;0.9784;1.9619;
226.5000;0.9776;1.9619;
226.8000;0.9768;1.9644;
227.1000;0.9801;1.9644;
227.4000;0.9760;1.9546;
227.7000;0.9833;1.9692;
228.0000;0.9801;1.9595;
228.3000;0.9833;1.9692;
228.6000;0.9801;1.9668;
228.9000;0.9784;1.9668;
229.2000;0.9801;1.9571;
229.5000;0.9792;1.9546;
229.8000;0.9792;1.9498;
230.1000;0.9801;1.9498;
230.4000;0.9792;1.9571;
230.7000;0.9809;1.9619;
231.0000;0.9801;1.9619;
231.3000;0.9809;1.9619;
231.6000;0.9784;1.9595;
231.9000;0.9792;1.9716;
232.2000;0.9801;1.9619;
232.5000;0.9792;1.9619;
232.8000;0.9817;1.9644;
233.1000;0.9792;1.9571;
233.4000;0.9792;1.9449;
233.7000;0.9809;1.9425;
234.0000;0.9792;1.9449;
234.3000;0.9784;1.9498;
234.6000;0.9801;1.9498;
234.9000;0.9784;1.9449;
235.2000;0.9809;1.9498;
235.5000;0.9809;1.9522;
235.8000;0.9898;1.9716;
236.1000;0.9817;1.9546;
236.4000;0.9825;1.9595;
236.7000;0.9817;1.9619;
237.0000;0.9809;1.9716;
237.3000;0.9809;1.9668;
237.6000;0.9825;1.9692;
237.9000;0.9784;1.9619;
238.2000;0.9833;1.9619;
238.5000;0.9784;1.9522;
238.8000;0.9809;1.9644;
239.1000;0.9784;1.9692;
239.4000;0.9784;1.9692;
239.7000;0.9792;1.9644;
240.0000;0.9801;1.9644;
240.3000;0.9841;1.9789;
240.6000;0.9858;1.9935;
240.9000;0.9866;1.9959;
241.2000;0.9792;1.9789;
241.5000;0.9784;1.9741;
241.8000;0.9792;1.9814;
242.1000;0.9809;1.9959;
242.4000;0.9719;1.9741;
242.7000;0.9752;1.9765;
243.0000;0.9792;1.9789;
243.3000;0.9833;1.9911;
243.6000;0.9809;1.9765;
243.9000;0.9752;1.9619;
244.2000;0.9792;1.9668;
244.5000;0.9801;1.9765;
244.8000;0.9801;1.9765;
245.1000;0.9784;1.9716;
245.4000;0.9784;1.9692;
245.7000;0.9801;1.9692;
246.0000;0.9792;1.9619;
246.3000;0.9792;1.9595;
246.6000;0.9849;1.9692;
246.9000;0.9801;1.9498;
247.2000;0.9801;1.9522;
247.5000;0.9801;1.9571;
247.8000;0.9784;1.9546;
248.1000;0.9809;1.9668;
248.4000;0.9792;1.9619;
248.7000;0.9801;1.9619;
249.0000;0.9776;1.9474;
249.3000;0.9776;1.9425;
249.6000;0.9768;1.9377;
249.9000;0.9801;1.9546;
250.2000;0.9809;1.9546;
250.5000;0.9801;1.9498;
250.8000;0.9776;1.9546;
251.1000;0.9792;1.9595;
251.4000;0.9801;1.9692;
251.7000;0.9792;1.9789;
252.0000;0.9792;1.9789;
252.3000;0.9801;1.9911;
252.6000;0.9792;1.9886;
252.9000;0.9784;1.9862;
253.2000;0.9784;1.9911;
253.5000;0.9801;1.9886;
253.8000;0.9784;1.9838;
254.1000;0.9792;1.9814;
254.4000;0.9784;1.9741;
254.7000;0.9760;1.9716;
255.0000;0.9784;1.9814;
255.3000;0.9776;1.9765;
255.6000;0.9792;1.9741;
255.9000;0.9801;1.9765;
256.2000;0.9784;1.9716;
256.5000;0.9792;1.9716;
256.8000;0.9792;1.9668;
257.1000;0.9776;1.9668;
257.4000;0.9792;1.9619;
257.7000;0.9760;1.9595;
258.0000;0.9784;1.9619;
258.3000;0.9784;1.9619;
258.6000;0.9760;1.9546;
258.9000;0.9784;1.9644;
259.2000;0.9784;1.9619;
259.5000;0.9776;1.9498;
259.8000;0.9792;1.9571;
260.1000;0.9792;1.9619;
260.4000;0.9784;1.9546;
260.7000;0.9792;1.9522;
261.0000;0.9784;1.9619;
261.3000;0.9792;1.9619;
261.6000;0.9768;1.9522;
261.9000;0.9792;1.9619;
262.2000;0.9760;1.9571;
262.5000;0.9744;1.9522;
262.8000;0.9760;1.9522;
263.1000;0.9784;1.9571;
263.4000;0.9768;1.9449;
263.7000;0.9776;1.9522;
264.0000;0.9792;1.9522;
264.3000;0.9784;1.9474;
264.6000;0.9784;1.9449;
264.9000;0.9744;1.9425;
265.2000;0.9784;1.9522;
265.5000;0.9752;1.9425;
265.8000;0.9776;1.9425;
266.1000;0.9792;1.9474;
266.4000;0.9809;1.9522;
266.7000;0.9776;1.9474;
267.0000;0.9792;1.9498;
267.3000;0.9776;1.9449;
267.6000;0.9784;1.9425;
267.9000;0.9792;1.9425;
268.2000;0.9776;1.9401;
268.5000;0.9760;1.9425;
268.8000;0.9776;1.9474;
269.1000;0.9784;1.9474;
269.4000;0.9784;1.9352;
269.7000;0.9801;1.9377;
270.0000;0.9784;1.9401;
270.3000;0.9809;1.9425;
270.6000;0.9784;1.9425;
270.9000;0.9784;1.9449;
271.2000;0.9784;1.9522;
271.5000;0.9784;1.9595;
271.8000;0.9801;1.9546;
272.1000;0.9784;1.9571;
272.4000;0.9792;1.9619;
272.7000;0.9760;1.9619;
273.0000;0.9792;1.9644;
273.3000;0.9784;1.9644;
273.6000;0.9735;1.9619;
273.9000;0.9760;1.9692;
274.2000;0.9792;1.9692;
274.5000;0.9776;1.9619;
274.8000;0.9825;1.9644;
275.1000;0.9735;1.9449;
275.4000;0.9784;1.9619;
275.7000;0.9776;1.9668;
276.0000;0.9784;1.9765;
276.3000;0.9784;1.9741;
276.6000;0.9817;1.9741;
276.9000;0.9784;1.9716;
277.2000;0.9809;1.9741;
277.5000;0.9744;1.9644;
277.8000;0.9784;1.9668;
278.1000;0.9801;1.9644;
278.4000;0.9801;1.9619;
278.7000;0.9801;1.9619;
279.0000;0.9801;1.9668;
279.3000;0.9809;1.9668;
279.6000;0.9809;1.9716;
279.9000;0.9841;1.9814;
280.2000;0.9882;1.9862;
280.5000;0.9801;1.9644;
280.8000;0.9727;1.9352;
281.1000;0.9784;1.9522;
281.4000;0.9792;1.9619;
281.7000;0.9792;1.9716;
282.0000;0.9792;1.9595;
282.3000;0.9784;1.9522;
282.6000;0.9801;1.9546;
282.9000;0.9801;1.9401;
283.2000;0.9817;1.9498;
283.5000;0.9792;1.9546;
283.8000;0.9792;1.9474;
284.1000;0.9801;1.9522;
284.4000;0.9784;1.9498;
284.7000;0.9784;1.9425;
285.0000;0.9792;1.9522;
285.3000;0.9801;1.9619;
285.6000;0.9792;1.9595;
285.9000;0.9792;1.9619;
286.2000;0.9801;1.9668;
286.5000;0.9784;1.9571;
286.8000;0.9792;1.9644;
287.1000;0.9792;1.9571;
287.4000;0.9784;1.9498;
287.7000;0.9784;1.9619;
288.0000;0.9809;1.9668;
288.3000;0.9801;1.9571;
288.6000;0.9792;1.9546;
288.9000;0.9768;1.9522;
289.2000;0.9784;1.9546;
289.5000;0.9784;1.9619;
289.8000;0.9784;1.9571;
290.1000;0.9784;1.9595;
290.4000;0.9719;1.9328;
290.7000;0.9784;1.9498;
291.0000;0.9792;1.9522;
291.3000;0.9776;1.9522;
291.6000;0.9792;1.9522;
291.9000;0.9776;1.9522;
292.2000;0.9825;1.9595;
292.5000;0.9776;1.9546;
292.8000;0.9776;1.9571;
293.1000;0.9792;1.9595;
293.4000;0.9752;1.9401;
293.7000;0.9784;1.9498;
294.0000;0.9744;1.9474;
294.3000;0.9809;1.9571;
294.6000;0.9801;1.9571;
294.9000;0.9768;1.9474;
295.2000;0.9792;1.9522;
295.5000;0.9858;1.9571;
295.8000;0.9809;1.9595;
296.1000;0.9809;1.9692;
296.4000;0.9776;1.9619;
296.7000;0.9768;1.9644;
297.0000;0.9784;1.9692;
297.3000;0.9752;1.9546;
297.6000;0.9735;1.9449;
297.9000;0.9776;1.9571;
298.2000;0.9776;1.9571;
298.5000;0.9817;1.9619;
298.8000;0.9801;1.9546;
299.1000;0.9817;1.9619;
299.4000;0.9784;1.9644;
299.7000;0.9792;1.9571;
300.0000;0.9792;1.9619;
300.3000;0.9784;1.9668;
300.6000;0.9776;1.9741;
300.9000;0.9792;1.9741;
301.2000;0.9784;1.9692;
301.5000;0.9801;1.9765;
301.8000;0.9792;1.9838;
302.1000;0.9809;1.9814;
302.4000;0.9784;1.9716;
302.7000;0.9784;1.9668;
303.0000;0.9801;1.9692;
303.3000;0.9792;1.9644;
303.6000;0.9719;1.9498;
303.9000;0.9792;1.9765;
304.2000;0.9776;1.9692;
304.5000;0.9776;1.9595;
304.8000;0.9776;1.9571;
305.1000;0.9792;1.9595;
305.4000;0.9776;1.9571;
305.7000;0.9784;1.9571;
306.0000;0.9825;1.9595;
306.3000;0.9809;1.9619;
306.6000;0.9792;1.9668;
306.9000;0.9776;1.9644;
307.2000;0.9833;1.9838;
307.5000;0.9776;1.9668;
307.8000;0.9760;1.9546;
308.1000;0.9784;1.9619;
308.4000;0.9735;1.9595;
308.7000;0.9792;1.9644;
309.0000;0.9792;1.9595;
309.3000;0.9792;1.9571;
309.6000;0.9784;1.9595;
309.9000;0.9784;1.9644;
310.2000;0.9792;1.9595;
310.5000;0.9833;1.9765;
310.8000;0.9768;1.9644;
311.1000;0.9760;1.9716;
311.4000;0.9784;1.9814;
311.7000;0.9768;1.9838;
312.0000;0.9760;1.9814;
312.3000;0.9792;1.9765;
312.6000;0.9768;1.9692;
312.9000;0.9719;1.9522;
313.2000;0.9735;1.9449;
313.5000;0.9768;1.9425;
313.8000;0.9801;1.9474;
314.1000;0.9801;1.9546;
314.4000;0.9776;1.9498;
314.7000;0.9760;1.9449;
315.0000;0.9768;1.9377;
315.3000;0.9792;1.9498;
315.6000;0.9784;1.9522;
315.9000;0.9784;1.9498;
316.2000;0.9809;1.9571;
316.5000;0.9801;1.9498;
316.8000;0.9776;1.9522;
317.1000;0.9776;1.9546;
317.4000;0.9858;1.9862;
317.7000;0.9784;1.9692;
318.0000;0.9792;1.9692;
318.3000;0.9776;1.9741;
318.6000;0.9776;1.9741;
318.9000;0.9784;1.9741;
319.2000;0.9784;1.9814;
319.5000;0.9792;1.9838;
319.8000;0.9768;1.9789;
320.1000;0.9784;1.9789;
320.4000;0.9776;1.9765;
320.7000;0.9849;1.9862;
321.0000;0.9776;1.9692;
321.3000;0.9776;1.9692;
321.6000;0.9735;1.9595;
321.9000;0.9784;1.9716;
322.2000;0.9825;1.9862;
322.5000;0.9809;1.9814;
322.8000;0.9744;1.9716;
323.1000;0.9784;1.9814;
323.4000;0.9776;1.9765;
323.7000;0.9768;1.9765;
324.0000;0.9776;1.9716;
324.3000;0.9784;1.9741;
324.6000;0.9784;1.9692;
324.9000;0.9784;1.9741;
325.2000;0.9792;1.9911;
325.5000;0.9825;1.9984;
325.8000;0.9833;1.9984;
326.1000;0.9768;1.9814;
326.4000;0.9784;1.9789;
326.7000;0.9792;1.9838;
327.0000;0.9817;1.9911;
327.3000;0.9784;1.9911;
327.6000;0.9801;1.9959;
327.9000;0.9784;1.9862;
328.2000;0.9792;1.9814;
328.5000;0.9776;1.9789;
328.8000;0.9784;1.9765;
329.1000;0.9792;1.9765;
329.4000;0.9792;1.9644;
329.7000;0.9809;1.9619;
330.0000;0.9825;1.9619;
330.3000;0.9784;1.9619;
330.6000;0.9760;1.9619;
330.9000;0.9801;1.9692;
331.2000;0.9784;1.9692;
331.5000;0.9776;1.9741;
331.8000;0.9735;1.9765;
332.1000;0.9727;1.9668;
332.4000;0.9792;1.9814;
332.7000;0.9760;1.9668;
333.0000;0.9792;1.9716;
333.3000;0.9768;1.9644;
333.6000;0.9841;1.9911;
333.9000;0.9784;1.9814;
334.2000;0.9776;1.9814;
334.5000;0.9784;1.9838;
334.8000;0.9776;1.9814;
335.1000;0.9760;1.9741;
335.4000;0.9849;1.9984;
335.7000;0.9792;1.9814;
336.0000;0.9784;1.9765;
336.3000;0.9768;1.9814;
336.6000;0.9792;1.9838;
336.9000;0.9792;1.9838;
337.2000;0.9776;1.9716;
337.5000;0.9801;1.9668;
337.8000;0.9744;1.9522;
338.1000;0.9809;1.9644;
338.4000;0.9784;1.9668;
338.7000;0.9792;1.9595;
339.0000;0.9776;1.9619;
339.3000;0.9784;1.9668;
339.6000;0.9801;1.9692;
339.9000;0.9776;1.9644;
340.2000;0.9776;1.9668;
340.5000;0.9792;1.9644;
340.8000;0.9792;1.9668;
341.1000;0.9801;1.9595;
341.4000;0.9768;1.9571;
341.7000;0.9784;1.9546;
342.0000;0.9776;1.9571;
342.3000;0.9801;1.9668;
342.6000;0.9776;1.9619;
342.9000;0.9784;1.9595;
343.2000;0.9768;1.9522;
343.5000;0.9801;1.9571;
343.8000;0.9768;1.9546;
344.1000;0.9784;1.9449;
344.4000;0.9784;1.9498;
344.7000;0.9841;1.9668;
345.0000;0.9776;1.9498;
345.3000;0.9776;1.9474;
345.6000;0.9784;1.9546;
345.9000;0.9801;1.9619;
346.2000;0.9817;1.9619;
346.5000;0.9792;1.9498;
346.8000;0.9768;1.9474;
347.1000;0.9792;1.9498;
347.4000;0.9792;1.9571;
347.7000;0.9776;1.9522;
348.0000;0.9776;1.9595;
348.3000;0.9776;1.9522;
348.6000;0.9768;1.9449;
348.9000;0.9784;1.9377;
349.2000;0.9760;1.9328;
349.5000;0.9792;1.9449;
349.8000;0.9792;1.9546;
350.1000;0.9792;1.9498;
350.4000;0.9776;1.9474;
350.7000;0.9784;1.9425;
351.0000;0.9776;1.9498;
351.3000;0.9784;1.9498;
351.6000;0.9801;1.9546;
351.9000;0.9784;1.9498;
352.2000;0.9776;1.9401;
352.5000;0.9784;1.9498;
352.8000;0.9776;1.9546;
353.1000;0.9776;1.9571;
353.4000;0.9784;1.9546;
353.7000;0.9776;1.9522;
354.0000;0.9768;1.9498;
354.3000;0.9735;1.9546;
354.6000;0.9768;1.9522;
354.9000;0.9768;1.9522;
355.2000;0.9784;1.9595;
355.5000;0.9727;1.9474;
355.8000;0.9752;1.9498;
356.1000;0.9744;1.9425;
356.4000;0.9760;1.9474;
356.7000;0.9760;1.9449;
357.0000;0.9768;1.9498;
357.3000;0.9776;1.9522;
357.6000;0.9792;1.9546;
357.9000;0.9776;1.9474;
358.2000;0.9744;1.9328;
358.5000;0.9768;1.9522;
358.8000;0.9792;1.9619;
359.1000;0.9768;1.9595;
359.4000;0.9744;1.9571;
359.7000;0.9744;1.9619;
360.0000;0.9784;1.9716;
360.3000;0.9727;1.9644;
360.6000;0.9752;1.9619;
360.9000;0.9784;1.9644;
361.2000;0.9768;1.9644;
361.5000;0.9784;1.9692;
361.8000;0.9792;1.9644;
362.1000;0.9776;1.9571;
362.4000;0.9784;1.9619;
362.7000;0.9801;1.9522;
363.0000;0.9776;1.9474;
363.3000;0.9784;1.9522;
363.6000;0.9792;1.9522;
363.9000;0.9809;1.9522;
364.2000;0.9792;1.9522;
364.5000;0.9792;1.9571;
364.8000;0.9784;1.9619;
365.1000;0.9784;1.9668;
365.4000;0.9792;1.9668;
365.7000;0.9792;1.9595;
366.0000;0.9768;1.9571;
366.3000;0.9784;1.9571;
366.6000;0.9784;1.9474;
366.9000;0.9776;1.9425;
367.2000;0.9776;1.9498;
367.5000;0.9776;1.9522;
367.8000;0.9768;1.9498;
368.1000;0.9760;1.9474;
368.4000;0.9784;1.9498;
368.7000;0.9784;1.9644;
369.0000;0.9792;1.9619;
369.3000;0.9776;1.9546;
369.6000;0.9744;1.9328;
369.9000;0.9768;1.9377;
370.2000;0.9768;1.9377;
370.5000;0.9768;1.9425;
370.8000;0.9776;1.9546;
371.1000;0.9760;1.9498;
371.4000;0.9784;1.9522;
371.7000;0.9801;1.9546;
372.0000;0.9776;1.9498;
372.3000;0.9784;1.9498;
372.6000;0.9719;1.9425;
372.9000;0.9792;1.9571;
373.2000;0.9784;1.9522;
373.5000;0.9784;1.9474;
373.8000;0.9776;1.9474;
374.1000;0.9784;1.9474;
374.4000;0.9768;1.9449;
374.7000;0.9784;1.9498;
375.0000;0.9760;1.9401;
375.3000;0.9776;1.9425;
375.6000;0.9833;1.9546;
375.9000;0.9744;1.9377;
376.2000;0.9727;1.9279;
376.5000;0.9784;1.9328;
376.8000;0.9776;1.9304;
377.1000;0.9760;1.9279;
377.4000;0.9784;1.9401;
377.7000;0.9760;1.9377;
378.0000;0.9784;1.9498;
378.3000;0.9776;1.9595;
378.6000;0.9760;1.9546;
378.9000;0.9760;1.9522;
379.2000;0.9784;1.9522;
379.5000;0.9752;1.9449;
379.8000;0.9776;1.9425;
380.1000;0.9760;1.9425;
380.4000;0.9768;1.9401;
380.7000;0.9776;1.9352;
381.0000;0.9776;1.9328;
381.3000;0.9760;1.9304;
381.6000;0.9784;1.9401;
381.9000;0.9768;1.9352;
382.2000;0.9833;1.9546;
382.5000;0.9784;1.9377;
382.8000;0.9768;1.9425;
383.1000;0.9784;1.9546;
383.4000;0.9752;1.9474;
383.7000;0.9792;1.9522;
384.0000;0.9784;1.9546;
384.3000;0.9784;1.9619;
384.6000;0.9784;1.9595;
384.9000;0.9776;1.9595;
385.2000;0.9768;1.9425;
385.5000;0.9768;1.9377;
385.8000;0.9760;1.9304;
386.1000;0.9768;1.9449;
386.4000;0.9768;1.9401;
386.7000;0.9768;1.9401;
387.0000;0.9768;1.9352;
387.3000;0.9784;1.9352;
387.6000;0.9760;1.9304;
387.9000;0.9776;1.9449;
388.2000;0.9784;1.9449;
388.5000;0.9866;1.9668;
388.8000;0.9768;1.9546;
389.1000;0.9776;1.9571;
389.4000;0.9760;1.9546;
389.7000;0.9792;1.9546;
390.0000;0.9776;1.9449;
390.3000;0.9768;1.9401;
390.6000;0.9719;1.9231;
390.9000;0.9760;1.9352;
391.2000;0.9768;1.9279;
391.5000;0.9752;1.9255;
391.8000;0.9752;1.9328;
392.1000;0.9760;1.9377;
392.4000;0.9768;1.9498;
392.7000;0.9760;1.9546;
393.0000;0.9776;1.9474;
393.3000;0.9776;1.9474;
393.6000;0.9792;1.9522;
393.9000;0.9768;1.9498;
394.2000;0.9760;1.9498;
394.5000;0.9752;1.9498;
394.8000;0.9744;1.9474;
395.1000;0.9760;1.9449;
395.4000;0.9735;1.9352;
395.7000;0.9760;1.9352;
396.0000;0.9776;1.9377;
396.3000;0.9768;1.9401;
396.6000;0.9817;1.9522;
396.9000;0.9768;1.9352;
397.2000;0.9768;1.9304;
397.5000;0.9776;1.9328;
397.8000;0.9760;1.9352;
398.1000;0.9792;1.9474;
398.4000;0.9768;1.9377;
398.7000;0.9792;1.9474;
399.0000;0.9768;1.9522;
399.3000;0.9792;1.9571;
399.6000;0.9768;1.9498;
399.9000;0.9776;1.9401;
400.2000;0.9768;1.9304;
400.5000;0.9768;1.9425;
400.8000;0.9776;1.9522;
401.1000;0.9784;1.9546;
401.4000;0.9784;1.9546;
401.7000;0.9752;1.9522;
402.0000;0.9752;1.9474;
402.3000;0.9768;1.9425;
402.6000;0.9768;1.9328;
402.9000;0.9744;1.9255;
403.2000;0.9760;1.9182;
403.5000;0.9703;1.9012;
403.8000;0.9768;1.9279;
404.1000;0.9752;1.9304;
404.4000;0.9744;1.9304;
404.7000;0.9792;1.9449;
405.0000;0.9760;1.9352;
405.3000;0.9744;1.9279;
405.6000;0.9744;1.9279;
405.9000;0.9695;1.9134;
406.2000;0.9784;1.9352;
406.5000;0.9801;1.9377;
406.8000;0.9776;1.9328;
407.1000;0.9768;1.9279;
407.4000;0.9776;1.9279;
407.7000;0.9784;1.9279;
408.0000;0.9776;1.9255;
408.3000;0.9768;1.9279;
408.6000;0.9784;1.9328;
408.9000;0.9792;1.9352;
409.2000;0.9744;1.9207;
409.5000;0.9703;1.9207;
409.8000;0.9776;1.9328;
410.1000;0.9784;1.9304;
410.4000;0.9776;1.9279;
410.7000;0.9768;1.9255;
411.0000;0.9768;1.9304;
411.3000;0.9768;1.9279;
411.6000;0.9768;1.9304;
411.9000;0.9752;1.9328;
412.2000;0.9784;1.9449;
412.5000;0.9768;1.9498;
412.8000;0.9809;1.9571;
413.1000;0.9760;1.9474;
413.4000;0.9768;1.9546;
413.7000;0.9760;1.9546;
414.0000;0.9776;1.9619;
414.3000;0.9776;1.9619;
414.6000;0.9760;1.9595;
414.9000;0.9784;1.9644;
415.2000;0.9760;1.9571;
415.5000;0.9752;1.9522;
415.8000;0.9768;1.9595;
416.1000;0.9776;1.9595;
416.4000;0.9760;1.9571;
416.7000;0.9768;1.9644;
417.0000;0.9752;1.9619;
417.3000;0.9760;1.9546;
417.6000;0.9768;1.9546;
417.9000;0.9768;1.9498;
418.2000;0.9776;1.9498;
418.5000;0.9768;1.9449;
418.8000;0.9768;1.9425;
419.1000;0.9776;1.9546;
419.4000;0.9792;1.9644;
419.7000;0.9768;1.9595;
420.0000;0.9768;1.9522;
420.3000;0.9776;1.9522;
420.6000;0.9760;1.9498;
420.9000;0.9776;1.9522;
421.2000;0.9760;1.9498;
421.5000;0.9727;1.9425;
421.8000;0.9866;1.9911;
422.1000;0.9776;1.9619;
422.4000;0.9760;1.9716;
422.7000;0.9760;1.9741;
423.0000;0.9760;1.9692;
423.3000;0.9752;1.9619;
423.6000;0.9760;1.9619;
423.9000;0.9776;1.9692;
424.2000;0.9768;1.9716;
424.5000;0.9776;1.9741;
424.8000;0.9768;1.9668;
425.1000;0.9752;1.9692;
425.4000;0.9768;1.9741;
425.7000;0.9727;1.9522;
426.0000;0.9768;1.9546;
426.3000;0.9760;1.9522;
426.6000;0.9776;1.9522;
426.9000;0.9744;1.9474;
427.2000;0.9678;1.9279;
427.5000;0.9768;1.9498;
427.8000;0.9776;1.9595;
428.1000;0.9768;1.9619;
428.4000;0.9858;1.9838;
428.7000;0.9776;1.9644;
429.0000;0.9744;1.9619;
429.3000;0.9776;1.9619;
429.6000;0.9784;1.9644;
429.9000;0.9760;1.9595;
430.2000;0.9752;1.9571;
430.5000;0.9752;1.9619;
430.8000;0.9695;1.9352;
431.1000;0.9792;1.9474;
431.4000;0.9768;1.9425;
431.7000;0.9792;1.9425;
432.0000;0.9776;1.9352;
432.3000;0.9776;1.9401;
432.6000;0.9776;1.9522;
432.9000;0.9792;1.9668;
433.2000;0.9768;1.9644;
433.5000;0.9768;1.9644;
433.8000;0.9760;1.9571;
434.1000;0.9760;1.9571;
434.4000;0.9776;1.9619;
434.7000;0.9768;1.9741;
435.0000;0.9768;1.9668;
435.3000;0.9752;1.9716;
435.6000;0.9825;1.9862;
435.9000;0.9776;1.9741;
436.2000;0.9760;1.9692;
436.5000;0.9727;1.9716;
436.8000;0.9768;1.9862;
437.1000;0.9768;1.9886;
437.4000;0.9768;1.9886;
437.7000;0.9760;1.9911;
438.0000;0.9768;1.9959;
438.3000;0.9768;1.9935;
438.6000;0.9768;1.9959;
438.9000;0.9776;1.9911;
439.2000;0.9768;1.9862;
439.5000;0.9825;1.9959;
439.8000;0.9752;1.9668;
440.1000;0.9760;1.9546;
440.4000;0.9768;1.9522;
440.7000;0.9768;1.9546;
441.0000;0.9768;1.9595;
441.3000;0.9752;1.9668;
441.6000;0.9760;1.9692;
441.9000;0.9752;1.9692;
442.2000;0.9776;1.9692;
442.5000;0.9752;1.9741;
442.8000;0.9760;1.9765;
443.1000;0.9768;1.9862;
443.4000;0.9760;1.9862;
443.7000;0.9760;1.9838;
444.0000;0.9760;1.9765;
444.3000;0.9760;1.9741;
444.6000;0.9711;1.9692;
444.9000;0.9752;1.9789;
445.2000;0.9784;1.9838;
445.5000;0.9752;1.9765;
445.8000;0.9752;1.9765;
446.1000;0.9760;1.9814;
446.4000;0.9784;1.9789;
446.7000;0.9768;1.9862;
447.0000;0.9760;1.9911;
447.3000;0.9768;2.0008;
447.6000;0.9768;2.0081;
447.9000;0.9752;2.0008;
448.2000;0.9670;1.9692;
448.5000;0.9752;1.9838;
448.8000;0.9744;1.9838;
449.1000;0.9801;1.9959;
449.4000;0.9735;1.9789;
449.7000;0.9858;2.0056;
450.0000;0.9760;1.9814;
450.3000;0.9735;1.9765;
450.6000;0.9752;1.9765;
450.9000;0.9792;1.9814;
451.2000;0.9760;1.9741;
451.5000;0.9776;1.9644;
451.8000;0.9752;1.9619;
452.1000;0.9760;1.9644;
452.4000;0.9744;1.9644;
452.7000;0.9744;1.9668;
453.0000;0.9776;1.9716;
453.3000;0.9760;1.9619;
453.6000;0.9792;1.9741;
453.9000;0.9768;1.9692;
454.2000;0.9727;1.9644;
454.5000;0.9776;1.9692;
454.8000;0.9801;1.9789;
455.1000;0.9768;1.9741;
455.4000;0.9768;1.9789;
455.7000;0.9752;1.9765;
456.0000;0.9768;1.9765;
456.3000;0.9760;1.9814;
456.6000;0.9760;1.9862;
456.9000;0.9752;1.9789;
457.2000;0.9752;1.9838;
457.5000;0.9784;1.9862;
457.8000;0.9784;1.9862;
458.1000;0.9760;1.9789;
458.4000;0.9760;1.9838;
458.7000;0.9776;1.9862;
459.0000;0.9744;1.9716;
459.3000;0.9768;1.9692;
459.6000;0.9695;1.9498;
459.9000;0.9760;1.9668;
460.2000;0.9768;1.9716;
460.5000;0.9784;1.9814;
460.8000;0.9752;1.9765;
461.1000;0.9768;1.9741;
461.4000;0.9768;1.9789;
461.7000;0.9784;1.9862;
462.0000;0.9776;1.9862;
462.3000;0.9768;1.9789;
462.6000;0.9768;1.9765;
462.9000;0.9784;1.9838;
463.2000;0.9760;1.9789;
463.5000;0.9768;1.9789;
463.8000;0.9776;1.9814;
464.1000;0.9768;1.9741;
464.4000;0.9776;1.9838;
464.7000;0.9744;1.9862;
465.0000;0.9752;1.9789;
465.3000;0.9768;1.9911;
465.6000;0.9768;1.9886;
465.9000;0.9744;1.9838;
466.2000;0.9752;1.9765;
466.5000;0.9776;1.9741;
466.8000;0.9744;1.9644;
467.1000;0.9752;1.9595;
467.4000;0.9744;1.9619;
467.7000;0.9760;1.9644;
468.0000;0.9776;1.9668;
468.3000;0.9735;1.9546;
468.6000;0.9711;1.9522;
468.9000;0.9768;1.9546;
469.2000;0.9768;1.9595;
469.5000;0.9711;1.9449;
469.8000;0.9768;1.9692;
470.1000;0.9768;1.9716;
470.4000;0.9768;1.9692;
470.7000;0.9817;1.9838;
471.0000;0.9760;1.9716;
471.3000;0.9760;1.9692;
471.6000;0.9760;1.9692;
471.9000;0.9760;1.9692;
472.2000;0.9735;1.9595;
472.5000;0.9776;1.9668;
472.8000;0.9760;1.9716;
473.1000;0.9752;1.9692;
473.4000;0.9719;1.9619;
473.7000;0.9760;1.9692;
474.0000;0.9768;1.9716;
474.3000;0.9784;1.9814;
474.6000;0.9760;1.9765;
474.9000;0.9760;1.9716;
475.2000;0.9727;1.9692;
475.5000;0.9752;1.9668;
475.8000;0.9760;1.9716;
476.1000;0.9801;1.9911;
476.4000;0.9752;1.9692;
476.7000;0.9760;1.9741;
477.0000;0.9744;1.9716;
477.3000;0.9760;1.9789;
477.6000;0.9719;1.9765;
477.9000;0.9792;1.9789;
478.2000;0.9809;1.9862;
478.5000;0.9744;1.9716;
478.8000;0.9744;1.9862;
479.1000;0.9744;2.0032;
479.4000;0.9760;2.0008;
479.7000;0.9784;1.9984;
480.0000;0.9744;1.9959;
480.3000;0.9744;1.9911;
480.6000;0.9752;1.9911;
480.9000;0.9752;1.9838;
481.2000;0.9744;1.9862;
481.5000;0.9744;1.9911;
481.8000;0.9752;2.0032;
482.1000;0.9768;1.9984;
482.4000;0.9760;1.9935;
482.7000;0.9744;1.9959;
483.0000;0.9752;1.9911;
483.3000;0.9752;1.9911;
483.6000;0.9784;1.9935;
483.9000;0.9760;1.9886;
484.2000;0.9752;1.9862;
484.5000;0.9817;1.9911;
484.8000;0.9752;1.9692;
485.1000;0.9760;1.9741;
485.4000;0.9760;1.9716;
485.7000;0.9776;1.9741;
486.0000;0.9752;1.9765;
486.3000;0.9760;1.9789;
486.6000;0.9752;1.9765;
486.9000;0.9776;1.9814;
487.2000;0.9768;1.9789;
487.5000;0.9776;1.9838;
487.8000;0.9792;1.9789;
488.1000;0.9752;1.9668;
488.4000;0.9744;1.9571;
488.7000;0.9752;1.9571;
489.0000;0.9744;1.9449;
489.3000;0.9752;1.9425;
489.6000;0.9760;1.9352;
489.9000;0.9760;1.9401;
490.2000;0.9744;1.9449;
490.5000;0.9678;1.9231;
490.8000;0.9801;1.9449;
491.1000;0.9752;1.9352;
491.4000;0.9776;1.9377;
491.7000;0.9768;1.9449;
492.0000;0.9735;1.9401;
492.3000;0.9792;1.9474;
492.6000;0.9719;1.9352;
492.9000;0.9776;1.9571;
493.2000;0.9776;1.9692;
493.5000;0.9776;1.9644;
493.8000;0.9760;1.9571;
494.1000;0.9752;1.9595;
494.4000;0.9768;1.9644;
494.7000;0.9776;1.9571;
495.0000;0.9760;1.9571;
495.3000;0.9752;1.9619;
495.6000;0.9760;1.9692;
495.9000;0.9760;1.9741;
496.2000;0.9727;1.9571;
496.5000;0.9760;1.9644;
496.8000;0.9744;1.9716;
497.1000;0.9744;1.9741;
497.4000;0.9768;1.9765;
497.7000;0.9784;1.9716;
498.0000;0.9784;1.9765;
498.3000;0.9760;1.9741;
498.6000;0.9744;1.9619;
498.9000;0.9768;1.9595;
499.2000;0.9768;1.9522;
499.5000;0.9719;1.9425;
499.8000;0.9768;1.9571;
500.1000;0.9776;1.9595;
500.4000;0.9776;1.9571;
500.7000;0.9752;1.9449;
501.0000;0.9776;1.9522;
501.3000;0.9727;1.9401;
501.6000;0.9760;1.9498;
501.9000;0.9670;1.9328;
502.2000;0.9760;1.9522;
502.5000;0.9809;1.9644;
502.8000;0.9760;1.9449;
503.1000;0.9744;1.9352;
503.4000;0.9768;1.9449;
503.7000;0.9776;1.9449;
504.0000;0.9776;1.9522;
504.3000;0.9760;1.9546;
504.6000;0.9760;1.9595;
504.9000;0.9784;1.9595;
505.2000;0.9768;1.9595;
505.5000;0.9744;1.9595;
505.8000;0.9760;1.9619;
506.1000;0.9768;1.9619;
506.4000;0.9752;1.9522;
506.7000;0.9760;1.9571;
507.0000;0.9735;1.9595;
507.3000;0.9760;1.9571;
507.6000;0.9654;1.9328;
507.9000;0.9760;1.9644;
508.2000;0.9760;1.9741;
508.5000;0.9776;1.9692;
508.8000;0.9768;1.9595;
509.1000;0.9760;1.9595;
509.4000;0.9768;1.9644;
509.7000;0.9792;1.9741;
510.0000;0.9760;1.9692;
510.3000;0.9744;1.9668;
510.6000;0.9752;1.9741;
510.9000;0.9752;1.9716;
511.2000;0.9760;1.9692;
511.5000;0.9768;1.9619;
511.8000;0.9752;1.9619;
512.1000;0.9670;1.9401;
512.4000;0.9735;1.9522;
512.7000;0.9752;1.9546;
513.0000;0.9776;1.9644;
513.3000;0.9727;1.9619;
513.6000;0.9735;1.9546;
513.9000;0.9735;1.9522;
514.2000;0.9760;1.9571;
514.5000;0.9752;1.9522;
514.8000;0.9760;1.9522;
515.1000;0.9752;1.9498;
515.4000;0.9768;1.9546;
515.7000;0.9727;1.9522;
516.0000;0.9752;1.9644;
516.3000;0.9760;1.9692;
516.6000;0.9760;1.9716;
516.9000;0.9752;1.9644;
517.2000;0.9695;1.9498;
517.5000;0.9735;1.9668;
517.8000;0.9776;1.9789;
518.1000;0.9768;1.9765;
518.4000;0.9744;1.9741;
518.7000;0.9744;1.9789;
519.0000;0.9776;1.9814;
519.3000;0.9768;1.9911;
519.6000;0.9760;1.9911;
519.9000;0.9744;1.9911;
520.2000;0.9752;1.9959;
520.5000;0.9760;1.9984;
520.8000;0.9768;1.9886;
521.1000;0.9752;1.9911;
521.4000;0.9744;1.9862;
521.7000;0.9719;1.9862;
522.0000;0.9752;1.9911;
522.3000;0.9744;1.9886;
522.6000;0.9735;1.9814;
522.9000;0.9760;1.9911;
523.2000;0.9752;1.9814;
523.5000;0.9776;1.9789;
523.8000;0.9703;1.9522;
524.1000;0.9752;1.9668;
524.4000;0.9654;1.9328;
524.7000;0.9752;1.9522;
525.0000;0.9760;1.9522;
525.3000;0.9703;1.9425;
525.6000;0.9768;1.9571;
525.9000;0.9752;1.9474;
526.2000;0.9776;1.9522;
526.5000;0.9735;1.9546;
526.8000;0.9744;1.9644;
527.1000;0.9768;1.9692;
527.4000;0.9768;1.9692;
527.7000;0.9735;1.9644;
528.0000;0.9760;1.9765;
528.3000;0.9744;1.9814;
528.6000;0.9809;1.9935;
528.9000;0.9735;1.9741;
529.2000;0.9752;1.9741;
529.5000;0.9776;1.9716;
529.8000;0.9744;1.9668;
530.1000;0.9744;1.9716;
530.4000;0.9768;1.9814;
530.7000;0.9727;1.9668;
531.0000;0.9752;1.9789;
531.3000;0.9752;1.9838;
531.6000;0.9744;1.9814;
531.9000;0.9760;1.9716;
532.2000;0.9784;1.9692;
532.5000;0.9760;1.9619;
532.8000;0.9752;1.9765;
533.1000;0.9744;1.9741;
533.4000;0.9760;1.9838;
533.7000;0.9752;1.9814;
534.0000;0.9752;1.9911;
534.3000;0.9752;1.9984;
534.6000;0.9760;2.0056;
534.9000;0.9752;1.9984;
535.2000;0.9727;1.9911;
535.5000;0.9776;1.9935;
535.8000;0.9752;1.9862;
536.1000;0.9744;1.9814;
536.4000;0.9760;1.9862;
536.7000;0.9760;1.9838;
537.0000;0.9752;1.9789;
537.3000;0.9735;1.9668;
537.6000;0.9744;1.9644;
537.9000;0.9727;1.9595;
538.2000;0.9744;1.9644;
538.5000;0.9735;1.9546;
538.8000;0.9760;1.9498;
539.1000;0.9719;1.9425;
539.4000;0.9833;1.9765;
539.7000;0.9703;1.9474;
540.0000;0.9760;1.9619;
540.3000;0.9744;1.9571;
540.6000;0.9735;1.9644;
540.9000;0.9752;1.9789;
541.2000;0.9760;1.9886;
541.5000;0.9768;1.9862;
541.8000;0.9752;1.9741;
542.1000;0.9752;1.9741;
542.4000;0.9744;1.9716;
542.7000;0.9768;1.9741;
543.0000;0.9752;1.9716;
543.3000;0.9744;1.9741;
543.6000;0.9752;1.9741;
543.9000;0.9719;1.9619;
544.2000;0.9735;1.9644;
544.5000;0.9678;1.9449;
544.8000;0.9744;1.9716;
545.1000;0.9768;1.9814;
545.4000;0.9735;1.9716;
545.7000;0.9776;1.9862;
546.0000;0.9776;1.9789;
546.3000;0.9768;1.9765;
546.6000;0.9760;1.9595;
546.9000;0.9817;1.9716;
547.2000;0.9654;1.9304;
547.5000;0.9744;1.9522;
547.8000;0.9841;1.9814;
548.1000;0.9744;1.9644;
548.4000;0.9760;1.9765;
548.7000;0.9752;1.9595;
549.0000;0.9760;1.9571;
549.3000;0.9735;1.9619;
549.6000;0.9752;1.9546;
549.9000;0.9760;1.9571;
550.2000;0.9752;1.9644;
550.5000;0.9760;1.9668;
550.8000;0.9760;1.9668;
551.1000;0.9784;1.9814;
551.4000;0.9752;1.9741;
551.7000;0.9752;1.9765;
552.0000;0.9776;1.9789;
552.3000;0.9744;1.9765;
552.6000;0.9801;1.9862;
552.9000;0.9735;1.9765;
553.2000;0.9719;1.9789;
553.5000;0.9744;1.9862;
553.8000;0.9760;1.9862;
554.1000;0.9719;1.9765;
554.4000;0.9744;1.9741;
554.7000;0.9735;1.9716;
555.0000;0.9744;1.9716;
555.3000;0.9760;1.9716;
555.6000;0.9752;1.9692;
555.9000;0.9744;1.9765;
556.2000;0.9768;1.9862;
556.5000;0.9744;1.9935;
556.8000;0.9752;1.9886;
557.1000;0.9752;1.9838;
557.4000;0.9752;1.9814;
557.7000;0.9703;1.9741;
558.0000;0.9744;1.9814;
558.3000;0.9735;1.9814;
558.6000;0.9735;1.9716;
558.9000;0.9744;1.9692;
559.2000;0.9727;1.9692;
559.5000;0.9744;1.9741;
559.8000;0.9801;1.9886;
560.1000;0.9760;1.9765;
560.4000;0.9752;1.9765;
560.7000;0.9752;1.9886;
561.0000;0.9695;1.9789;
561.3000;0.9727;1.9838;
561.6000;0.9744;1.9935;
561.9000;0.9752;1.9838;
562.2000;0.9744;1.9814;
562.5000;0.9752;1.9838;
562.8000;0.9768;1.9838;
563.1000;0.9719;1.9765;
563.4000;0.9809;1.9862;
563.7000;0.9817;1.9838;
564.0000;0.9752;1.9741;
564.3000;0.9744;1.9668;
564.6000;0.9752;1.9741;
564.9000;0.9776;1.9814;
565.2000;0.9703;1.9692;
565.5000;0.9760;1.9741;
565.8000;0.9711;1.9546;
566.1000;0.9784;1.9765;
566.4000;0.9744;1.9692;
566.7000;0.9760;1.9716;
567.0000;0.9735;1.9595;
567.3000;0.9719;1.9401;
567.6000;0.9735;1.9401;
567.9000;0.9752;1.9498;
568.2000;0.9792;1.9595;
568.5000;0.9727;1.9619;
568.8000;0.9768;1.9692;
569.1000;0.9809;1.9862;
569.4000;0.9735;1.9741;
569.7000;0.9744;1.9838;
570.0000;0.9744;1.9814;
570.3000;0.9744;1.9814;
570.6000;0.9744;1.9862;
570.9000;0.9719;1.9814;
571.2000;0.9703;1.9814;
571.5000;0.9752;1.9862;
571.8000;0.9744;1.9911;
572.1000;0.9735;1.9886;
572.4000;0.9752;1.9838;
572.7000;0.9752;1.9862;
573.0000;0.9760;1.9814;
573.3000;0.9768;1.9716;
573.6000;0.9744;1.9668;
573.9000;0.9744;1.9741;
574.2000;0.9760;1.9741;
574.5000;0.9735;1.9741;
574.8000;0.9744;1.9789;
575.1000;0.9744;1.9838;
575.4000;0.9735;1.9741;
575.7000;0.9776;1.9814;
576.0000;0.9727;1.9692;
576.3000;0.9735;1.9668;
576.6000;0.9752;1.9765;
576.9000;0.9744;1.9668;
577.2000;0.9768;1.9716;
577.5000;0.9735;1.9668;
577.8000;0.9744;1.9692;
578.1000;0.9735;1.9644;
578.4000;0.9735;1.9644;
578.7000;0.9735;1.9571;
579.0000;0.9735;1.9571;
579.3000;0.9752;1.9619;
579.6000;0.9760;1.9668;
579.9000;0.9727;1.9619;
580.2000;0.9719;1.9619;
580.5000;0.9727;1.9668;
580.8000;0.9719;1.9595;
581.1000;0.9760;1.9716;
581.4000;0.9727;1.9595;
581.7000;0.9727;1.9668;
582.0000;0.9744;1.9716;
582.3000;0.9752;1.9741;
582.6000;0.9744;1.9814;
582.9000;0.9735;1.9862;
583.2000;0.9727;1.9862;
583.5000;0.9744;1.9886;
583.8000;0.9727;1.9838;
584.1000;0.9735;1.9814;
584.4000;0.9711;1.9716;
584.7000;0.9776;1.9814;
585.0000;0.9744;1.9644;
585.3000;0.9744;1.9619;
585.6000;0.9744;1.9595;
585.9000;0.9735;1.9522;
586.2000;0.9735;1.9522;
586.5000;0.9711;1.9498;
586.8000;0.9735;1.9571;
587.1000;0.9744;1.9595;
587.4000;0.9735;1.9498;
587.7000;0.9735;1.9474;
588.0000;0.9727;1.9474;
588.3000;0.9760;1.9619;
588.6000;0.9744;1.9692;
588.9000;0.9752;1.9668;
589.2000;0.9735;1.9668;
589.5000;0.9752;1.9716;
589.8000;0.9752;1.9765;
590.1000;0.9752;1.9765;
590.4000;0.9735;1.9668;
590.7000;0.9735;1.9692;
591.0000;0.9760;1.9814;
591.3000;0.9735;1.9838;
591.6000;0.9727;1.9838;
591.9000;0.9735;1.9911;
592.2000;0.9727;1.9911;
592.5000;0.9744;1.9765;
592.8000;0.9744;1.9716;
593.1000;0.9727;1.9692;
593.4000;0.9735;1.9765;
593.7000;0.9744;1.9814;
594.0000;0.9727;1.9789;
594.3000;0.9719;1.9692;
594.6000;0.9711;1.9668;
594.9000;0.9727;1.9716;
595.2000;0.9727;1.9619;
595.5000;0.9703;1.9571;
595.8000;0.9744;1.9619;
596.1000;0.9727;1.9619;
596.4000;0.9727;1.9668;
596.7000;0.9727;1.9668;
597.0000;0.9735;1.9644;
597.3000;0.9727;1.9692;
597.6000;0.9687;1.9571;
597.9000;0.9744;1.9644;
598.2000;0.9744;1.9644;
598.5000;0.9735;1.9692;
598.8000;0.9752;1.9765;
599.1000;0.9744;1.9741;
599.4000;0.9744;1.9741;
599.7000;0.9776;1.9741;
600.0000;0.9744;1.9619;
600.3000;0.9792;1.9474;
600.6000;0.9744;1.9328;
600.9000;0.9711;1.9158;
601.2000;0.9687;1.9037;
601.5000;0.9621;1.8818;
601.8000;0.9540;1.8551;
602.1000;0.9459;1.8211;
602.4000;0.9394;1.8017;
602.7000;0.9320;1.7798;
603.0000;0.9247;1.7677;
603.3000;0.9190;1.7555;
603.6000;0.9117;1.7410;
603.9000;0.9076;1.7313;
604.2000;0.9019;1.7191;
604.5000;0.8930;1.6997;
604.8000;0.8848;1.6851;
605.1000;0.8840;1.6900;
605.4000;0.8759;1.6778;
605.7000;0.8742;1.6754;
606.0000;0.8694;1.6657;
606.3000;0.8637;1.6584;
606.6000;0.8604;1.6487;
606.9000;0.8539;1.6414;
607.2000;0.8514;1.6366;
607.5000;0.8482;1.6293;
607.8000;0.8441;1.6220;
608.1000;0.8384;1.6171;
608.4000;0.8344;1.6171;
608.7000;0.8311;1.6196;
609.0000;0.8278;1.6123;
609.3000;0.8230;1.6147;
609.6000;0.8205;1.6147;
609.9000;0.8156;1.6099;
610.2000;0.8132;1.6050;
610.5000;0.8132;1.6001;
610.8000;0.8075;1.5904;
611.1000;0.8026;1.5856;
611.4000;0.7993;1.5783;
611.7000;0.7961;1.5613;
612.0000;0.7928;1.5564;
612.3000;0.7896;1.5564;
612.6000;0.7871;1.5589;
612.9000;0.7839;1.5589;
613.2000;0.7814;1.5613;
613.5000;0.7774;1.5564;
613.8000;0.7749;1.5516;
614.1000;0.7749;1.5516;
614.4000;0.7700;1.5467;
614.7000;0.7668;1.5419;
615.0000;0.7570;1.5322;
615.3000;0.7635;1.5467;
615.6000;0.7603;1.5370;
615.9000;0.7570;1.5297;
616.2000;0.7546;1.5297;
616.5000;0.7554;1.5297;
616.8000;0.7505;1.5224;
617.1000;0.7473;1.5103;
617.4000;0.7473;1.5127;
617.7000;0.7473;1.5127;
618.0000;0.7416;1.5006;
618.3000;0.7375;1.4982;
618.6000;0.7342;1.4957;
618.9000;0.7350;1.5054;
619.2000;0.7326;1.5176;
619.5000;0.7310;1.5152;
619.8000;0.7285;1.5054;
620.1000;0.7277;1.4982;
620.4000;0.7253;1.5006;
620.7000;0.7245;1.4909;
621.0000;0.7188;1.4860;
621.3000;0.7245;1.5054;
621.6000;0.7236;1.5079;
621.9000;0.7155;1.4909;
622.2000;0.7123;1.4909;
622.5000;0.7074;1.4739;
622.8000;0.7106;1.4933;
623.1000;0.7082;1.4860;
623.4000;0.7066;1.4884;
623.7000;0.7057;1.4739;
624.0000;0.7033;1.4739;
624.3000;0.7017;1.4860;
624.6000;0.7000;1.4884;
624.9000;0.6984;1.4957;
625.2000;0.6976;1.4860;
625.5000;0.6960;1.4812;
625.8000;0.6952;1.4909;
626.1000;0.6919;1.4860;
626.4000;0.6919;1.4763;
626.7000;0.6886;1.4569;
627.0000;0.6886;1.4617;
627.3000;0.6846;1.4666;
627.6000;0.6846;1.4666;
627.9000;0.6846;1.4714;
628.2000;0.6854;1.4690;
628.5000;0.6854;1.4617;
628.8000;0.6813;1.4520;
629.1000;0.6789;1.4496;
629.4000;0.6772;1.4545;
629.7000;0.6772;1.4569;
630.0000;0.6748;1.4545;
630.3000;0.6724;1.4569;
630.6000;0.6716;1.4569;
630.9000;0.6797;1.4812;
631.2000;0.6707;1.4617;
631.5000;0.6699;1.4666;
631.8000;0.6675;1.4642;
632.1000;0.6691;1.4787;
632.4000;0.6667;1.4787;
632.7000;0.6642;1.4666;
633.0000;0.6642;1.4690;
633.3000;0.6602;1.4496;
633.6000;0.6618;1.4617;
633.9000;0.6585;1.4593;
634.2000;0.6626;1.4714;
634.5000;0.6569;1.4666;
634.8000;0.6577;1.4714;
635.1000;0.6561;1.4714;
635.4000;0.6561;1.4739;
635.7000;0.6561;1.4787;
636.0000;0.6626;1.5079;
636.3000;0.6528;1.4836;
636.6000;0.6496;1.4763;
636.9000;0.6553;1.4812;
637.2000;0.6504;1.4714;
637.5000;0.6496;1.4884;
637.8000;0.6512;1.4982;
638.1000;0.6561;1.5030;
638.4000;0.6471;1.4787;
638.7000;0.6496;1.4909;
639.0000;0.6488;1.4884;
639.3000;0.6390;1.4690;
639.6000;0.6439;1.4836;
639.9000;0.6406;1.4739;
640.2000;0.6439;1.4860;
640.5000;0.6365;1.4690;
640.8000;0.6439;1.4884;
641.1000;0.6365;1.4666;
641.4000;0.6431;1.4812;
641.7000;0.6365;1.4690;
642.0000;0.6382;1.4763;
642.3000;0.6374;1.4666;
642.6000;0.6349;1.4496;
642.9000;0.6382;1.4520;
643.2000;0.6309;1.4423;
643.5000;0.6374;1.4617;
643.8000;0.6333;1.4642;
644.1000;0.6325;1.4690;
644.4000;0.6317;1.4642;
644.7000;0.6260;1.4545;
645.0000;0.6309;1.4739;
645.3000;0.6333;1.4860;
645.6000;0.6292;1.4812;
645.9000;0.6292;1.4739;
646.2000;0.6309;1.4666;
646.5000;0.6260;1.4593;
646.8000;0.6284;1.4545;
647.1000;0.6268;1.4496;
647.4000;0.6252;1.4520;
647.7000;0.6252;1.4666;
648.0000;0.6227;1.4569;
648.3000;0.6252;1.4642;
648.6000;0.6227;1.4617;
648.9000;0.6203;1.4472;
649.2000;0.6219;1.4399;
649.5000;0.6211;1.4447;
649.8000;0.6203;1.4447;
650.1000;0.6203;1.4496;
650.4000;0.6203;1.4520;
650.7000;0.6203;1.4642;
651.0000;0.6162;1.4545;
651.3000;0.6186;1.4617;
651.6000;0.6162;1.4593;
651.9000;0.6162;1.4545;
652.2000;0.6178;1.4593;
652.5000;0.6146;1.4447;
652.8000;0.6186;1.4472;
653.1000;0.6113;1.4326;
653.4000;0.6154;1.4423;
653.7000;0.6138;1.4496;
654.0000;0.6146;1.4617;
654.3000;0.6146;1.4690;
654.6000;0.6129;1.4642;
654.9000;0.6138;1.4690;
655.2000;0.6089;1.4569;
655.5000;0.6097;1.4520;
655.8000;0.6113;1.4545;
656.1000;0.6105;1.4520;
656.4000;0.6113;1.4520;
656.7000;0.6048;1.4277;
657.0000;0.6105;1.4399;
657.3000;0.6121;1.4399;
657.6000;0.6097;1.4302;
657.9000;0.6056;1.4156;
658.2000;0.6056;1.4205;
658.5000;0.6072;1.4302;
658.8000;0.6072;1.4277;
659.1000;0.6154;1.4496;
659.4000;0.6072;1.4350;
659.7000;0.6064;1.4350;
660.0000;0.6032;1.4350;
660.3000;0.6024;1.4326;
660.6000;0.5991;1.4132;
660.9000;0.6024;1.4302;
661.2000;0.6081;1.4545;
661.5000;0.6015;1.4545;
661.8000;0.6032;1.4617;
662.1000;0.5958;1.4423;
662.4000;0.6105;1.4763;
662.7000;0.6056;1.4569;
663.0000;0.6015;1.4496;
663.3000;0.6015;1.4472;
663.6000;0.5991;1.4472;
663.9000;0.5999;1.4593;
664.2000;0.5967;1.4496;
664.5000;0.5991;1.4593;
664.8000;0.5975;1.4545;
665.1000;0.5983;1.4496;
665.4000;0.5975;1.4593;
665.7000;0.5975;1.4569;
666.0000;0.5983;1.4593;
666.3000;0.5958;1.4496;
666.6000;0.5991;1.4593;
666.9000;0.5926;1.4423;
667.2000;0.5975;1.4472;
667.5000;0.5983;1.4472;
667.8000;0.5967;1.4447;
668.1000;0.5942;1.4423;
668.4000;0.5975;1.4496;
668.7000;0.5958;1.4399;
669.0000;0.5975;1.4423;
669.3000;0.5934;1.4253;
669.6000;0.5958;1.4326;
669.9000;0.5934;1.4277;
670.2000;0.5934;1.4302;
670.5000;0.5942;1.4472;
670.8000;0.5942;1.4447;
671.1000;0.5926;1.4423;
671.4000;0.5934;1.4375;
671.7000;0.5934;1.4326;
672.0000;0.5918;1.4375;
672.3000;0.5926;1.4472;
672.6000;0.5902;1.4447;
672.9000;0.5926;1.4545;
673.2000;0.5893;1.4472;
673.5000;0.5902;1.4423;
673.8000;0.5902;1.4375;
674.1000;0.5902;1.4423;
674.4000;0.5893;1.4423;
674.7000;0.5877;1.4350;
675.0000;0.5877;1.4447;
675.3000;0.5869;1.4496;
675.6000;0.5910;1.4666;
675.9000;0.5885;1.4617;
676.2000;0.5877;1.4545;
676.5000;0.5877;1.4472;
676.8000;0.5918;1.4545;
677.1000;0.5885;1.4545;
677.4000;0.5869;1.4545;
677.7000;0.5861;1.4520;
678.0000;0.5885;1.4569;
678.3000;0.5885;1.4545;
678.6000;0.5877;1.4399;
678.9000;0.5861;1.4496;
679.2000;0.5861;1.4423;
679.5000;0.5861;1.4472;
679.8000;0.5804;1.4399;
680.1000;0.5820;1.4496;
680.4000;0.5910;1.4714;
680.7000;0.5853;1.4569;
681.0000;0.5861;1.4617;
681.3000;0.5820;1.4545;
681.6000;0.5836;1.4666;
681.9000;0.5836;1.4714;
682.2000;0.5877;1.4787;
682.5000;0.5836;1.4714;
682.8000;0.5820;1.4690;
683.1000;0.5869;1.4690;
683.4000;0.5853;1.4569;
683.7000;0.5812;1.4496;
684.0000;0.5796;1.4496;
684.3000;0.5788;1.4423;
684.6000;0.5812;1.4569;
684.9000;0.5796;1.4520;
685.2000;0.5812;1.4496;
685.5000;0.5804;1.4423;
685.8000;0.5796;1.4496;
686.1000;0.5796;1.4545;
686.4000;0.5779;1.4472;
686.7000;0.5804;1.4545;
687.0000;0.5804;1.4545;
687.3000;0.5804;1.4520;
687.6000;0.5788;1.4545;
687.9000;0.5796;1.4496;
688.2000;0.5804;1.4472;
688.5000;0.5804;1.4520;
688.8000;0.5779;1.4472;
689.1000;0.5779;1.4399;
689.4000;0.5739;1.4375;
689.7000;0.5779;1.4472;
690.0000;0.5788;1.4472;
690.3000;0.5779;1.4520;
690.6000;0.5779;1.4472;
690.9000;0.5788;1.4350;
691.2000;0.5788;1.4375;
691.5000;0.5755;1.4326;
691.8000;0.5796;1.4375;
692.1000;0.5771;1.4350;
692.4000;0.5763;1.4375;
692.7000;0.5755;1.4375;
693.0000;0.5771;1.4399;
693.3000;0.5771;1.4447;
693.6000;0.5771;1.4447;
693.9000;0.5747;1.4423;
694.2000;0.5763;1.4375;
694.5000;0.5739;1.4302;
694.8000;0.5739;1.4302;
695.1000;0.5763;1.4399;
695.4000;0.5731;1.4350;
695.7000;0.5690;1.4302;
696.0000;0.5739;1.4520;
696.3000;0.5755;1.4569;
696.6000;0.5739;1.4569;
696.9000;0.5722;1.4447;
697.2000;0.5739;1.4447;
697.5000;0.5665;1.4253;
697.8000;0.5731;1.4423;
698.1000;0.5722;1.4423;
698.4000;0.5739;1.4545;
698.7000;0.5731;1.4569;
699.0000;0.5779;1.4666;
699.3000;0.5739;1.4472;
699.6000;0.5731;1.4472;
699.9000;0.5698;1.4375;
700.2000;0.5739;1.4545;
700.5000;0.5706;1.4496;
700.8000;0.5706;1.4496;
701.1000;0.5731;1.4520;
701.4000;0.5739;1.4496;
701.7000;0.5731;1.4569;
702.0000;0.5714;1.4520;
702.3000;0.5722;1.4545;
702.6000;0.5739;1.4593;
702.9000;0.5731;1.4593;
703.2000;0.5722;1.4545;
703.5000;0.5722;1.4399;
703.8000;0.5779;1.4545;
704.1000;0.5714;1.4375;
704.4000;0.5714;1.4277;
704.7000;0.5739;1.4350;
705.0000;0.5731;1.4375;
705.3000;0.5690;1.4302;
705.6000;0.5714;1.4326;
705.9000;0.5690;1.4253;
706.2000;0.5682;1.4277;
706.5000;0.5714;1.4253;
706.8000;0.5690;1.4253;
707.1000;0.5690;1.4253;
707.4000;0.5698;1.4277;
707.7000;0.5706;1.4326;
708.0000;0.5690;1.4302;
708.3000;0.5698;1.4326;
708.6000;0.5674;1.4350;
708.9000;0.5698;1.4496;
709.2000;0.5690;1.4447;
709.5000;0.5690;1.4520;
709.8000;0.5690;1.4496;
710.1000;0.5665;1.4423;
710.4000;0.5665;1.4350;
710.7000;0.5682;1.4375;
711.0000;0.5674;1.4423;
711.3000;0.5690;1.4447;
711.6000;0.5674;1.4472;
711.9000;0.5665;1.4447;
712.2000;0.5665;1.4472;
712.5000;0.5682;1.4496;
712.8000;0.5682;1.4520;
713.1000;0.5665;1.4545;
713.4000;0.5714;1.4642;
713.7000;0.5665;1.4545;
714.0000;0.5690;1.4642;
714.3000;0.5682;1.4569;
714.6000;0.5633;1.4545;
714.9000;0.5657;1.4569;
715.2000;0.5674;1.4617;
715.5000;0.5665;1.4569;
715.8000;0.5674;1.4520;
716.1000;0.5657;1.4520;
716.4000;0.5665;1.4593;
716.7000;0.5682;1.4666;
717.0000;0.5739;1.4909;
717.3000;0.5665;1.4690;
717.6000;0.5674;1.4714;
717.9000;0.5657;1.4714;
718.2000;0.5649;1.4666;
718.5000;0.5625;1.4690;
718.8000;0.5657;1.4884;
719.1000;0.5665;1.4884;
719.4000;0.5657;1.4836;
719.7000;0.5665;1.4787;
720.0000;0.5641;1.4666;
720.3000;0.5649;1.4714;
720.6000;0.5722;1.4812;
720.9000;0.5641;1.4739;
721.2000;0.5657;1.4690;
721.5000;0.5608;1.4690;
721.8000;0.5657;1.4836;
722.1000;0.5649;1.4836;
722.4000;0.5641;1.4787;
722.7000;0.5649;1.4860;
723.0000;0.5600;1.4714;
723.3000;0.5633;1.4787;
723.6000;0.5641;1.4787;
723.9000;0.5625;1.4739;
724.2000;0.5649;1.4690;
724.5000;0.5649;1.4666;
724.8000;0.5649;1.4666;
725.1000;0.5649;1.4666;
725.4000;0.5641;1.4642;
725.7000;0.5641;1.4569;
726.0000;0.5633;1.4690;
726.3000;0.5617;1.4666;
726.6000;0.5584;1.4593;
726.9000;0.5617;1.4617;
727.2000;0.5625;1.4617;
727.5000;0.5617;1.4593;
727.8000;0.5633;1.4569;
728.1000;0.5665;1.4642;
728.4000;0.5641;1.4569;
728.7000;0.5617;1.4520;
729.0000;0.5617;1.4496;
729.3000;0.5625;1.4545;
729.6000;0.5608;1.4472;
729.9000;0.5625;1.4520;
730.2000;0.5625;1.4593;
730.5000;0.5625;1.4593;
730.8000;0.5625;1.4593;
731.1000;0.5633;1.4690;
731.4000;0.5625;1.4714;
731.7000;0.5592;1.4642;
732.0000;0.5592;1.4617;
732.3000;0.5617;1.4714;
732.6000;0.5608;1.4812;
732.9000;0.5649;1.4812;
733.2000;0.5592;1.4739;
733.5000;0.5600;1.4763;
733.8000;0.5600;1.4739;
734.1000;0.5600;1.4714;
734.4000;0.5600;1.4690;
734.7000;0.5617;1.4714;
735.0000;0.5625;1.4860;
735.3000;0.5608;1.4909;
735.6000;0.5617;1.4909;
735.9000;0.5625;1.4909;
736.2000;0.5625;1.4836;
736.5000;0.5617;1.4787;
736.8000;0.5592;1.4714;
737.1000;0.5608;1.4812;
737.4000;0.5608;1.4836;
737.7000;0.5592;1.4860;
738.0000;0.5584;1.4933;
738.3000;0.5600;1.4957;
738.6000;0.5608;1.4933;
738.9000;0.5584;1.4836;
739.2000;0.5592;1.4812;
739.5000;0.5584;1.4763;
739.8000;0.5519;1.4545;
740.1000;0.5592;1.4714;
740.4000;0.5584;1.4739;
740.7000;0.5592;1.4739;
741.0000;0.5608;1.4763;
741.3000;0.5625;1.4836;
741.6000;0.5600;1.4763;
741.9000;0.5584;1.4884;
742.2000;0.5592;1.4860;
742.5000;0.5682;1.4933;
742.8000;0.5576;1.4763;
743.1000;0.5600;1.4763;
743.4000;0.5608;1.4739;
743.7000;0.5560;1.4666;
744.0000;0.5584;1.4739;
744.3000;0.5584;1.4739;
744.6000;0.5584;1.4787;
744.9000;0.5592;1.4763;
745.2000;0.5568;1.4739;
745.5000;0.5576;1.4787;
745.8000;0.5560;1.4739;
746.1000;0.5592;1.4787;
746.4000;0.5584;1.4739;
746.7000;0.5592;1.4860;
747.0000;0.5592;1.4812;
747.3000;0.5592;1.4739;
747.6000;0.5576;1.4739;
747.9000;0.5568;1.4763;
748.2000;0.5560;1.4763;
748.5000;0.5576;1.4763;
748.8000;0.5584;1.4714;
749.1000;0.5551;1.4739;
749.4000;0.5568;1.4836;
749.7000;0.5551;1.4836;
750.0000;0.5584;1.4884;
750.3000;0.5584;1.4787;
750.6000;0.5608;1.4836;
750.9000;0.5584;1.4714;
751.2000;0.5568;1.4690;
751.5000;0.5584;1.4763;
751.8000;0.5568;1.4690;
752.1000;0.5568;1.4642;
752.4000;0.5592;1.4666;
752.7000;0.5576;1.4642;
753.0000;0.5608;1.4714;
753.3000;0.5543;1.4569;
753.6000;0.5576;1.4642;
753.9000;0.5560;1.4666;
754.2000;0.5486;1.4520;
754.5000;0.5568;1.4787;
754.8000;0.5584;1.4763;
755.1000;0.5535;1.4666;
755.4000;0.5543;1.4812;
755.7000;0.5568;1.4933;
756.0000;0.5560;1.4982;
756.3000;0.5649;1.5200;
756.6000;0.5568;1.4957;
756.9000;0.5560;1.4884;
757.2000;0.5576;1.4957;
757.5000;0.5584;1.4909;
757.8000;0.5584;1.4884;
758.1000;0.5560;1.4884;
758.4000;0.5576;1.4982;
758.7000;0.5560;1.4812;
759.0000;0.5576;1.4812;
759.3000;0.5551;1.4763;
759.6000;0.5535;1.4763;
759.9000;0.5560;1.4763;
760.2000;0.5560;1.4739;
760.5000;0.5576;1.4763;
760.8000;0.5568;1.4714;
761.1000;0.5584;1.4860;
761.4000;0.5584;1.4860;
761.7000;0.5568;1.4787;
762.0000;0.5584;1.4787;
762.3000;0.5519;1.4714;
762.6000;0.5560;1.4860;
762.9000;0.5560;1.4739;
763.2000;0.5560;1.4739;
763.5000;0.5576;1.4812;
763.8000;0.5560;1.4860;
764.1000;0.5551;1.4836;
764.4000;0.5543;1.4836;
764.7000;0.5535;1.4812;
765.0000;0.5543;1.4812;
765.3000;0.5568;1.4836;
765.6000;0.5560;1.4812;
765.9000;0.5568;1.4812;
766.2000;0.5543;1.4714;
766.5000;0.5551;1.4860;
766.8000;0.5511;1.4739;
767.1000;0.5560;1.4836;
767.4000;0.5543;1.4714;
767.7000;0.5535;1.4739;
768.0000;0.5560;1.4763;
768.3000;0.5535;1.4642;
768.6000;0.5527;1.4569;
768.9000;0.5503;1.4496;
769.2000;0.5551;1.4642;
769.5000;0.5543;1.4642;
769.8000;0.5527;1.4666;
770.1000;0.5535;1.4763;
770.4000;0.5543;1.4763;
770.7000;0.5592;1.4884;
771.0000;0.5511;1.4714;
771.3000;0.5560;1.4763;
771.6000;0.5600;1.4860;
771.9000;0.5543;1.4739;
772.2000;0.5551;1.4836;
772.5000;0.5551;1.4884;
772.8000;0.5551;1.4836;
773.1000;0.5543;1.4860;
773.4000;0.5551;1.4739;
773.7000;0.5511;1.4763;
774.0000;0.5551;1.4812;
774.3000;0.5519;1.4739;
774.6000;0.5503;1.4617;
774.9000;0.5535;1.4690;
775.2000;0.5527;1.4690;
775.5000;0.5535;1.4739;
775.8000;0.5543;1.4714;
776.1000;0.5478;1.4520;
776.4000;0.5543;1.4763;
776.7000;0.5543;1.4690;
777.0000;0.5560;1.4714;
777.3000;0.5592;1.4909;
777.6000;0.5560;1.4763;
777.9000;0.5543;1.4763;
778.2000;0.5511;1.4690;
778.5000;0.5560;1.4739;
778.8000;0.5543;1.4642;
779.1000;0.5551;1.4666;
779.4000;0.5519;1.4617;
779.7000;0.5535;1.4690;
780.0000;0.5519;1.4642;
780.3000;0.5511;1.4666;
780.6000;0.5527;1.4787;
780.9000;0.5535;1.4836;
781.2000;0.5543;1.4860;
781.5000;0.5503;1.4714;
781.8000;0.5527;1.4739;
782.1000;0.5527;1.4642;
782.4000;0.5511;1.4714;
782.7000;0.5527;1.4860;
783.0000;0.5503;1.4714;
783.3000;0.5543;1.4836;
783.6000;0.5527;1.4860;
783.9000;0.5519;1.4860;
784.2000;0.5543;1.4836;
784.5000;0.5551;1.4812;
784.8000;0.5511;1.4787;
785.1000;0.5543;1.4909;
785.4000;0.5527;1.4812;
785.7000;0.5454;1.4593;
786.0000;0.5527;1.4763;
786.3000;0.5543;1.4884;
786.6000;0.5511;1.4860;
786.9000;0.5519;1.4860;
787.2000;0.5527;1.4884;
787.5000;0.5535;1.5006;
787.8000;0.5519;1.4884;
788.1000;0.5503;1.4836;
788.4000;0.5551;1.4909;
788.7000;0.5503;1.4763;
789.0000;0.5519;1.4836;
789.3000;0.5527;1.4836;
789.6000;0.5535;1.4763;
789.9000;0.5511;1.4739;
790.2000;0.5600;1.4957;
790.5000;0.5503;1.4666;
790.8000;0.5535;1.4812;
791.1000;0.5535;1.4957;
791.4000;0.5511;1.4884;
791.7000;0.5527;1.4909;
792.0000;0.5551;1.4982;
792.3000;0.5519;1.4909;
792.6000;0.5511;1.4957;
792.9000;0.5495;1.4884;
793.2000;0.5519;1.4933;
793.5000;0.5511;1.4836;
793.8000;0.5519;1.4836;
794.1000;0.5503;1.4860;
794.4000;0.5495;1.4884;
794.7000;0.5519;1.4812;
795.0000;0.5519;1.4836;
795.3000;0.5429;1.4666;
795.6000;0.5462;1.4836;
795.9000;0.5503;1.4909;
796.2000;0.5519;1.4982;
796.5000;0.5511;1.4957;
796.8000;0.5527;1.4982;
797.1000;0.5511;1.4909;
797.4000;0.5535;1.4884;
797.7000;0.5511;1.4884;
798.0000;0.5503;1.4836;
798.3000;0.5535;1.4763;
798.6000;0.5478;1.4763;
798.9000;0.5519;1.4739;
799.2000;0.5519;1.4787;
799.5000;0.5519;1.4763;
799.8000;0.5527;1.4812;
800.1000;0.5527;1.4812;
800.4000;0.5511;1.4690;
800.7000;0.5495;1.4666;
801.0000;0.5519;1.4763;
801.3000;0.5519;1.4812;
801.6000;0.5527;1.4787;
801.9000;0.5503;1.4714;
802.2000;0.5503;1.4812;
802.5000;0.5511;1.4787;
802.8000;0.5527;1.4860;
803.1000;0.5543;1.4860;
803.4000;0.5503;1.4763;
803.7000;0.5511;1.4739;
804.0000;0.5495;1.4714;
804.3000;0.5503;1.4739;
804.6000;0.5486;1.4690;
804.9000;0.5535;1.4763;
805.2000;0.5495;1.4739;
805.5000;0.5454;1.4642;
805.8000;0.5503;1.4812;
806.1000;0.5503;1.4787;
806.4000;0.5527;1.4909;
806.7000;0.5495;1.4982;
807.0000;0.5543;1.5030;
807.3000;0.5503;1.4812;
807.6000;0.5503;1.4836;
807.9000;0.5511;1.4812;
808.2000;0.5495;1.4714;
808.5000;0.5519;1.4836;
808.8000;0.5511;1.4812;
809.1000;0.5511;1.4714;
809.4000;0.5486;1.4617;
809.7000;0.5511;1.4593;
810.0000;0.5503;1.4569;
810.3000;0.5503;1.4569;
810.6000;0.5486;1.4545;
810.9000;0.5486;1.4617;
811.2000;0.5511;1.4690;
811.5000;0.5519;1.4666;
811.8000;0.5511;1.4714;
812.1000;0.5446;1.4593;
812.4000;0.5495;1.4617;
812.7000;0.5470;1.4569;
813.0000;0.5503;1.4593;
813.3000;0.5511;1.4617;
813.6000;0.5495;1.4617;
813.9000;0.5503;1.4569;
814.2000;0.5478;1.4520;
814.5000;0.5478;1.4545;
814.8000;0.5486;1.4545;
815.1000;0.5486;1.4545;
815.4000;0.5486;1.4593;
815.7000;0.5495;1.4617;
816.0000;0.5438;1.4520;
816.3000;0.5486;1.4617;
816.6000;0.5503;1.4666;
816.9000;0.5495;1.4617;
817.2000;0.5503;1.4569;
817.5000;0.5495;1.4617;
817.8000;0.5503;1.4642;
818.1000;0.5495;1.4666;
818.4000;0.5503;1.4739;
818.7000;0.5527;1.4860;
819.0000;0.5503;1.4836;
819.3000;0.5486;1.4763;
819.6000;0.5470;1.4690;
819.9000;0.5503;1.4763;
820.2000;0.5486;1.4642;
820.5000;0.5527;1.4666;
820.8000;0.5478;1.4496;
821.1000;0.5446;1.4375;
821.4000;0.5495;1.4496;
821.7000;0.5495;1.4545;
822.0000;0.5486;1.4520;
822.3000;0.5470;1.4569;
822.6000;0.5478;1.4617;
822.9000;0.5478;1.4617;
823.2000;0.5495;1.4714;
823.5000;0.5478;1.4642;
823.8000;0.5495;1.4617;
824.1000;0.5503;1.4617;
824.4000;0.5511;1.4617;
824.7000;0.5495;1.4569;
825.0000;0.5486;1.4520;
825.3000;0.5486;1.4569;
825.6000;0.5503;1.4617;
825.9000;0.5495;1.4666;
826.2000;0.5486;1.4714;
826.5000;0.5519;1.4860;
826.8000;0.5486;1.4812;
827.1000;0.5470;1.4812;
827.4000;0.5486;1.4836;
827.7000;0.5478;1.4787;
828.0000;0.5478;1.4739;
828.3000;0.5486;1.4787;
828.6000;0.5519;1.4836;
828.9000;0.5470;1.4739;
829.2000;0.5486;1.4763;
829.5000;0.5429;1.4545;
829.8000;0.5478;1.4642;
830.1000;0.5478;1.4690;
830.4000;0.5478;1.4690;
830.7000;0.5478;1.4787;
831.0000;0.5495;1.4836;
831.3000;0.5495;1.4836;
831.6000;0.5486;1.4884;
831.9000;0.5454;1.4909;
832.2000;0.5478;1.4884;
832.5000;0.5486;1.4836;
832.8000;0.5478;1.4763;
833.1000;0.5470;1.4787;
833.4000;0.5511;1.4909;
833.7000;0.5486;1.4860;
834.0000;0.5560;1.5079;
834.3000;0.5478;1.4909;
834.6000;0.5446;1.4763;
834.9000;0.5478;1.4836;
835.2000;0.5478;1.4836;
835.5000;0.5478;1.4860;
835.8000;0.5511;1.4763;
836.1000;0.5486;1.4666;
836.4000;0.5486;1.4714;
836.7000;0.5478;1.4642;
837.0000;0.5454;1.4642;
837.3000;0.5462;1.4520;
837.6000;0.5486;1.4545;
837.9000;0.5535;1.4666;
838.2000;0.5486;1.4642;
838.5000;0.5503;1.4714;
838.8000;0.5478;1.4666;
839.1000;0.5478;1.4617;
839.4000;0.5495;1.4593;
839.7000;0.5486;1.4593;
840.0000;0.5478;1.4569;
840.3000;0.5478;1.4593;
840.6000;0.5470;1.4642;
840.9000;0.5478;1.4690;
841.2000;0.5470;1.4642;
841.5000;0.5511;1.4593;
841.8000;0.5478;1.4520;
842.1000;0.5486;1.4617;
842.4000;0.5470;1.4642;
842.7000;0.5470;1.4617;
843.0000;0.5470;1.4690;
843.3000;0.5486;1.4714;
843.6000;0.5470;1.4714;
843.9000;0.5470;1.4739;
844.2000;0.5470;1.4690;
844.5000;0.5527;1.4812;
844.8000;0.5478;1.4690;
845.1000;0.5478;1.4690;
845.4000;0.5462;1.4642;
845.7000;0.5470;1.4666;
846.0000;0.5478;1.4836;
846.3000;0.5462;1.4714;
846.6000;0.5478;1.4690;
846.9000;0.5486;1.4642;
847.2000;0.5454;1.4617;
847.5000;0.5470;1.4666;
847.8000;0.5454;1.4642;
848.1000;0.5478;1.4739;
848.4000;0.5454;1.4569;
848.7000;0.5486;1.4763;
849.0000;0.5462;1.4763;
849.3000;0.5446;1.4787;
849.6000;0.5478;1.4909;
849.9000;0.5486;1.4933;
850.2000;0.5454;1.4884;
850.5000;0.5462;1.4957;
850.8000;0.5470;1.4957;
851.1000;0.5462;1.4982;
851.4000;0.5462;1.4933;
851.7000;0.5470;1.4909;
852.0000;0.5462;1.4860;
852.3000;0.5446;1.4836;
852.6000;0.5462;1.4812;
852.9000;0.5462;1.4714;
853.2000;0.5446;1.4642;
853.5000;0.5470;1.4714;
853.8000;0.5470;1.4739;
854.1000;0.5470;1.4787;
854.4000;0.5462;1.4739;
854.7000;0.5446;1.4690;
855.0000;0.5454;1.4617;
855.3000;0.5454;1.4642;
855.6000;0.5454;1.4714;
855.9000;0.5462;1.4690;
856.2000;0.5462;1.4739;
856.5000;0.5470;1.4787;
856.8000;0.5470;1.4763;
857.1000;0.5470;1.4690;
857.4000;0.5478;1.4836;
857.7000;0.5462;1.4836;
858.0000;0.5486;1.4860;
858.3000;0.5429;1.4714;
858.6000;0.5454;1.4812;
858.9000;0.5462;1.4860;
859.2000;0.5462;1.4884;
859.5000;0.5462;1.4860;
859.8000;0.5519;1.4982;
860.1000;0.5438;1.4763;
860.4000;0.5462;1.4763;
860.7000;0.5551;1.4884;
861.0000;0.5429;1.4593;
861.3000;0.5454;1.4739;
861.6000;0.5438;1.4642;
861.9000;0.5454;1.4690;
862.2000;0.5446;1.4690;
862.5000;0.5454;1.4763;
862.8000;0.5454;1.4836;
863.1000;0.5462;1.4739;
863.4000;0.5454;1.4739;
863.7000;0.5454;1.4690;
864.0000;0.5470;1.4666;
864.3000;0.5478;1.4617;
864.6000;0.5462;1.4593;
864.9000;0.5462;1.4593;
865.2000;0.5478;1.4714;
865.5000;0.5462;1.4763;
865.8000;0.5495;1.4763;
866.1000;0.5446;1.4642;
866.4000;0.5478;1.4690;
866.7000;0.5470;1.4739;
867.0000;0.5454;1.4714;
867.3000;0.5462;1.4714;
867.6000;0.5470;1.4739;
867.9000;0.5470;1.4787;
868.2000;0.5462;1.4860;
868.5000;0.5478;1.4982;
868.8000;0.5462;1.5006;
869.1000;0.5478;1.4909;
869.4000;0.5438;1.4836;
869.7000;0.5503;1.4982;
870.0000;0.5454;1.4787;
870.3000;0.5413;1.4714;
870.6000;0.5470;1.4933;
870.9000;0.5462;1.4957;
871.2000;0.5381;1.4812;
871.5000;0.5470;1.4957;
871.8000;0.5478;1.4884;
872.1000;0.5389;1.4617;
872.4000;0.5470;1.4860;
872.7000;0.5454;1.4787;
873.0000;0.5470;1.4836;
873.3000;0.5462;1.4812;
873.6000;0.5454;1.4690;
873.9000;0.5446;1.4690;
874.2000;0.5446;1.4666;
874.5000;0.5462;1.4714;
874.8000;0.5454;1.4666;
875.1000;0.5454;1.4714;
875.4000;0.5413;1.4642;
875.7000;0.5462;1.4787;
876.0000;0.5454;1.4739;
876.3000;0.5462;1.4714;
876.6000;0.5470;1.4739;
876.9000;0.5478;1.4787;
877.2000;0.5462;1.4787;
877.5000;0.5413;1.4690;
877.8000;0.5429;1.4714;
878.1000;0.5462;1.4714;
878.4000;0.5470;1.4836;
878.7000;0.5470;1.4739;
879.0000;0.5462;1.4690;
879.3000;0.5446;1.4714;
879.6000;0.5454;1.4690;
879.9000;0.5454;1.4666;
880.2000;0.5438;1.4690;
880.5000;0.5462;1.4714;
880.8000;0.5454;1.4642;
881.1000;0.5462;1.4666;
881.4000;0.5462;1.4690;
881.7000;0.5454;1.4739;
882.0000;0.5462;1.4812;
882.3000;0.5454;1.4860;
882.6000;0.5446;1.4860;
882.9000;0.5478;1.4982;
883.2000;0.5454;1.4933;
883.5000;0.5470;1.4860;
883.8000;0.5462;1.4763;
884.1000;0.5429;1.4836;
884.4000;0.5454;1.4860;
884.7000;0.5462;1.4860;
885.0000;0.5446;1.4836;
885.3000;0.5446;1.4884;
885.6000;0.5462;1.4933;
885.9000;0.5454;1.4957;
886.2000;0.5470;1.5103;
886.5000;0.5470;1.5127;
886.8000;0.5470;1.5176;
887.1000;0.5470;1.5103;
887.4000;0.5511;1.5176;
887.7000;0.5462;1.5030;
888.0000;0.5454;1.4957;
888.3000;0.5446;1.4982;
888.6000;0.5495;1.5152;
888.9000;0.5438;1.5103;
889.2000;0.5446;1.5079;
889.5000;0.5454;1.5127;
889.8000;0.5454;1.5103;
890.1000;0.5446;1.5006;
890.4000;0.5446;1.4957;
890.7000;0.5397;1.4884;
891.0000;0.5446;1.4909;
891.3000;0.5454;1.4957;
891.6000;0.5454;1.4909;
891.9000;0.5462;1.4933;
892.2000;0.5486;1.5006;
892.5000;0.5478;1.4957;
892.8000;0.5462;1.4957;
893.1000;0.5470;1.4933;
893.4000;0.5462;1.4982;
893.7000;0.5470;1.4982;
894.0000;0.5454;1.5006;
894.3000;0.5413;1.4909;
894.6000;0.5446;1.5030;
894.9000;0.5446;1.5127;
895.2000;0.5462;1.5103;
895.5000;0.5438;1.5103;
895.8000;0.5438;1.5103;
896.1000;0.5462;1.5103;
896.4000;0.5381;1.4884;
896.7000;0.5454;1.5079;
897.0000;0.5446;1.5054;
897.3000;0.5470;1.4982;
897.6000;0.5462;1.5006;
897.9000;0.5446;1.4884;
898.2000;0.5446;1.4836;
898.5000;0.5470;1.4836;
898.8000;0.5454;1.4836;
899.1000;0.5462;1.4860;
899.4000;0.5454;1.4909;
899.7000;0.5446;1.4909;
900.0000;0.5446;1.4957;
900.3000;0.5446;1.4909;
900.6000;0.5421;1.4884;
900.9000;0.5438;1.4933;
901.2000;0.5438;1.4957;
901.5000;0.5438;1.4884;
901.8000;0.5446;1.4909;
902.1000;0.5446;1.4957;
902.4000;0.5454;1.4957;
902.7000;0.5462;1.5006;
903.0000;0.5446;1.5054;
903.3000;0.5462;1.5079;
903.6000;0.5462;1.5006;
903.9000;0.5462;1.5006;
904.2000;0.5478;1.5030;
904.5000;0.5438;1.4884;
904.8000;0.5446;1.4812;
905.1000;0.5454;1.4836;
905.4000;0.5454;1.4812;
905.7000;0.5462;1.4884;
906.0000;0.5454;1.4957;
906.3000;0.5438;1.5054;
906.6000;0.5446;1.5030;
906.9000;0.5454;1.5006;
907.2000;0.5446;1.4933;
907.5000;0.5503;1.4982;
907.8000;0.5454;1.4787;
908.1000;0.5462;1.4884;
908.4000;0.5446;1.4909;
908.7000;0.5478;1.4933;
909.0000;0.5446;1.4884;
909.3000;0.5438;1.4957;
909.6000;0.5495;1.5079;
909.9000;0.5470;1.5079;
910.2000;0.5495;1.5200;
910.5000;0.5446;1.5079;
910.8000;0.5429;1.5079;
911.1000;0.5421;1.5079;
911.4000;0.5429;1.4933;
911.7000;0.5454;1.4933;
912.0000;0.5446;1.4836;
912.3000;0.5389;1.4763;
912.6000;0.5454;1.4957;
912.9000;0.5462;1.4982;
913.2000;0.5429;1.4957;
913.5000;0.5462;1.5103;
913.8000;0.5503;1.5297;
914.1000;0.5446;1.5079;
914.4000;0.5429;1.4982;
914.7000;0.5454;1.4982;
915.0000;0.5438;1.5030;
915.3000;0.5438;1.5079;
915.6000;0.5454;1.5079;
915.9000;0.5429;1.5030;
916.2000;0.5446;1.5079;
916.5000;0.5446;1.5200;
916.8000;0.5446;1.5176;
917.1000;0.5429;1.5103;
917.4000;0.5454;1.5079;
917.7000;0.5438;1.5030;
918.0000;0.5446;1.5054;
918.3000;0.5446;1.5079;
918.6000;0.5454;1.5054;
918.9000;0.5429;1.5030;
919.2000;0.5454;1.5103;
919.5000;0.5446;1.5054;
919.8000;0.5446;1.5079;
920.1000;0.5470;1.5030;
920.4000;0.5454;1.4884;
920.7000;0.5462;1.4836;
921.0000;0.5446;1.4812;
921.3000;0.5438;1.4836;
921.6000;0.5446;1.4860;
921.9000;0.5454;1.4957;
922.2000;0.5429;1.4836;
922.5000;0.5454;1.4933;
922.8000;0.5438;1.4909;
923.1000;0.5438;1.4909;
923.4000;0.5503;1.5152;
923.7000;0.5446;1.4957;
924.0000;0.5438;1.4957;
924.3000;0.5462;1.4909;
924.6000;0.5446;1.4957;
924.9000;0.5372;1.4714;
925.2000;0.5446;1.4836;
925.5000;0.5454;1.4836;
925.8000;0.5470;1.4860;
926.1000;0.5470;1.4836;
926.4000;0.5446;1.4763;
926.7000;0.5446;1.4739;
927.0000;0.5462;1.4690;
927.3000;0.5429;1.4739;
927.6000;0.5438;1.4739;
927.9000;0.5446;1.4739;
928.2000;0.5429;1.4836;
928.5000;0.5446;1.4909;
928.8000;0.5446;1.4836;
929.1000;0.5446;1.4957;
929.4000;0.5454;1.4982;
929.7000;0.5446;1.4982;
930.0000;0.5429;1.4933;
930.3000;0.5446;1.5006;
930.6000;0.5438;1.4957;
930.9000;0.5454;1.4933;
931.2000;0.5462;1.4909;
931.5000;0.5446;1.4909;
931.8000;0.5438;1.4884;
932.1000;0.5421;1.4860;
932.4000;0.5405;1.4860;
932.7000;0.5438;1.4933;
933.0000;0.5429;1.5054;
933.3000;0.5454;1.5054;
933.6000;0.5454;1.5030;
933.9000;0.5454;1.5006;
934.2000;0.5438;1.4982;
934.5000;0.5438;1.4933;
934.8000;0.5446;1.4957;
935.1000;0.5413;1.4933;
935.4000;0.5429;1.5006;
935.7000;0.5446;1.4982;
936.0000;0.5438;1.4957;
936.3000;0.5462;1.5030;
936.6000;0.5511;1.5127;
936.9000;0.5429;1.5006;
937.2000;0.5446;1.5030;
937.5000;0.5454;1.5079;
937.8000;0.5446;1.5152;
938.1000;0.5454;1.5103;
938.4000;0.5454;1.5127;
938.7000;0.5446;1.5054;
939.0000;0.5446;1.5103;
939.3000;0.5446;1.5079;
939.6000;0.5438;1.5079;
939.9000;0.5454;1.5079;
940.2000;0.5438;1.5103;
940.5000;0.5438;1.4957;
940.8000;0.5429;1.4957;
941.1000;0.5462;1.4982;
941.4000;0.5454;1.5006;
941.7000;0.5446;1.5006;
942.0000;0.5446;1.5006;
942.3000;0.5454;1.5006;
942.6000;0.5446;1.4909;
942.9000;0.5340;1.4666;
943.2000;0.5454;1.4982;
943.5000;0.5446;1.4957;
943.8000;0.5438;1.4957;
944.1000;0.5438;1.4933;
944.4000;0.5470;1.5006;
944.7000;0.5438;1.4860;
945.0000;0.5429;1.4909;
945.3000;0.5446;1.4909;
945.6000;0.5429;1.4957;
945.9000;0.5446;1.4933;
946.2000;0.5446;1.4860;
946.5000;0.5397;1.4714;
946.8000;0.5495;1.4957;
947.1000;0.5446;1.4812;
947.4000;0.5454;1.4860;
947.7000;0.5454;1.4909;
948.0000;0.5438;1.4884;
948.3000;0.5446;1.4982;
948.6000;0.5429;1.5006;
948.9000;0.5389;1.4957;
949.2000;0.5438;1.5079;
949.5000;0.5438;1.5079;
949.8000;0.5438;1.5079;
950.1000;0.5413;1.5054;
950.4000;0.5429;1.5103;
950.7000;0.5413;1.5030;
951.0000;0.5429;1.4982;
951.3000;0.5438;1.5006;
951.6000;0.5429;1.5006;
951.9000;0.5446;1.5079;
952.2000;0.5446;1.5103;
952.5000;0.5454;1.5103;
952.8000;0.5446;1.5079;
953.1000;0.5446;1.5127;
953.4000;0.5454;1.5079;
953.7000;0.5454;1.5006;
954.0000;0.5438;1.4982;
954.3000;0.5446;1.5054;
954.6000;0.5438;1.4982;
954.9000;0.5438;1.5079;
955.2000;0.5429;1.5030;
955.5000;0.5438;1.5079;
955.8000;0.5421;1.4982;
956.1000;0.5421;1.5006;
956.4000;0.5438;1.5006;
956.7000;0.5438;1.4982;
957.0000;0.5405;1.4933;
957.3000;0.5421;1.4933;
957.6000;0.5438;1.4933;
957.9000;0.5446;1.5079;
958.2000;0.5446;1.5030;
958.5000;0.5478;1.5103;
958.8000;0.5446;1.5054;
959.1000;0.5438;1.5079;
959.4000;0.5438;1.5079;
959.7000;0.5438;1.5054;
960.0000;0.5438;1.5054;
960.3000;0.5454;1.5079;
960.6000;0.5421;1.5030;
960.9000;0.5397;1.4933;
961.2000;0.5470;1.5054;
961.5000;0.5405;1.4933;
961.8000;0.5421;1.4982;
962.1000;0.5429;1.4957;
962.4000;0.5429;1.4933;
962.7000;0.5454;1.4933;
963.0000;0.5429;1.5006;
963.3000;0.5454;1.5103;
963.6000;0.5413;1.4982;
963.9000;0.5429;1.5006;
964.2000;0.5413;1.4982;
964.5000;0.5438;1.4957;
964.8000;0.5503;1.5054;
965.1000;0.5421;1.4787;
965.4000;0.5438;1.4812;
965.7000;0.5413;1.4763;
966.0000;0.5454;1.4909;
966.3000;0.5511;1.5079;
966.6000;0.5413;1.4787;
966.9000;0.5446;1.4909;
967.2000;0.5429;1.4836;
967.5000;0.5446;1.4884;
967.8000;0.5421;1.4836;
968.1000;0.5438;1.4957;
968.4000;0.5405;1.4909;
968.7000;0.5429;1.4884;
969.0000;0.5438;1.4884;
969.3000;0.5429;1.4909;
969.6000;0.5413;1.4787;
969.9000;0.5438;1.4909;
970.2000;0.5446;1.4933;
970.5000;0.5446;1.4957;
970.8000;0.5470;1.4933;
971.1000;0.5438;1.4909;
971.4000;0.5454;1.5006;
971.7000;0.5486;1.5103;
972.0000;0.5446;1.5030;
972.3000;0.5438;1.5006;
972.6000;0.5446;1.5006;
972.9000;0.5454;1.5054;
973.2000;0.5446;1.5054;
973.5000;0.5446;1.4982;
973.8000;0.5429;1.4884;
974.1000;0.5446;1.4909;
974.4000;0.5446;1.4787;
974.7000;0.5429;1.4763;
975.0000;0.5413;1.4812;
975.3000;0.5413;1.4812;
975.6000;0.5446;1.4933;
975.9000;0.5413;1.4812;
976.2000;0.5438;1.4714;
976.5000;0.5421;1.4763;
976.8000;0.5429;1.4812;
977.1000;0.5397;1.4714;
977.4000;0.5421;1.4836;
977.7000;0.5421;1.4836;
978.0000;0.5429;1.4909;
978.3000;0.5421;1.4836;
978.6000;0.5429;1.4884;
978.9000;0.5405;1.4812;
979.2000;0.5429;1.4860;
979.5000;0.5438;1.4836;
979.8000;0.5405;1.4836;
980.1000;0.5438;1.4884;
980.4000;0.5478;1.5006;
980.7000;0.5470;1.4957;
981.0000;0.5446;1.4884;
981.3000;0.5438;1.4884;
981.6000;0.5429;1.4909;
981.9000;0.5429;1.5006;
982.2000;0.5438;1.5054;
982.5000;0.5470;1.5152;
982.8000;0.5389;1.4884;
983.1000;0.5421;1.5030;
983.4000;0.5405;1.4957;
983.7000;0.5299;1.4593;
984.0000;0.5429;1.4982;
984.3000;0.5446;1.4933;
984.6000;0.5381;1.4763;
984.9000;0.5429;1.4884;
985.2000;0.5429;1.4860;
985.5000;0.5438;1.4739;
985.8000;0.5446;1.4763;
986.1000;0.5421;1.4812;
986.4000;0.5446;1.4933;
986.7000;0.5429;1.4884;
987.0000;0.5462;1.5030;
987.3000;0.5462;1.5103;
987.6000;0.5438;1.5079;
987.9000;0.5405;1.5030;
988.2000;0.5405;1.5054;
988.5000;0.5438;1.5152;
988.8000;0.5429;1.5079;
989.1000;0.5446;1.5079;
989.4000;0.5421;1.5079;
989.7000;0.5413;1.5030;
990.0000;0.5429;1.5176;
990.3000;0.5429;1.5030;
990.6000;0.5429;1.5006;
990.9000;0.5389;1.4957;
991.2000;0.5429;1.5054;
991.5000;0.5413;1.5006;
991.8000;0.5397;1.4957;
992.1000;0.5446;1.5054;
992.4000;0.5511;1.5224;
992.7000;0.5438;1.5079;
993.0000;0.5429;1.4982;
993.3000;0.5438;1.5006;
993.6000;0.5446;1.5054;
993.9000;0.5486;1.5127;
994.2000;0.5421;1.4957;
994.5000;0.5421;1.4933;
994.8000;0.5372;1.4812;
995.1000;0.5438;1.4933;
995.4000;0.5438;1.4884;
995.7000;0.5454;1.4933;
996.0000;0.5421;1.4860;
996.3000;0.5421;1.4836;
996.6000;0.5421;1.4836;
996.9000;0.5421;1.4812;
997.2000;0.5429;1.4860;
997.5000;0.5446;1.4909;
997.8000;0.5413;1.4836;
998.1000;0.5478;1.5054;
998.4000;0.5438;1.5006;
998.7000;0.5421;1.5079;
999.0000;0.5413;1.5006;
999.3000;0.5381;1.4933;
999.6000;0.5413;1.4933;
999.9000;0.5397;1.4860;
1000.2000;0.5397;1.4860;
1000.5000;0.5478;1.5054;
1000.8000;0.5429;1.4860;
1001.1000;0.5405;1.4787;
1001.4000;0.5413;1.4812;
1001.7000;0.5438;1.4836;
1002.0000;0.5438;1.4860;
1002.3000;0.5462;1.4933;
1002.6000;0.5446;1.4933;
1002.9000;0.5421;1.4860;
1003.2000;0.5429;1.4933;
1003.5000;0.5429;1.4909;
1003.8000;0.5495;1.4982;
1004.1000;0.5429;1.4836;
1004.4000;0.5413;1.4690;
1004.7000;0.5413;1.4617;
1005.0000;0.5429;1.4642;
1005.3000;0.5429;1.4520;
1005.6000;0.5446;1.4545;
1005.9000;0.5462;1.4569;
1006.2000;0.5438;1.4569;
1006.5000;0.5429;1.4593;
1006.8000;0.5429;1.4690;
1007.1000;0.5413;1.4642;
1007.4000;0.5413;1.4593;
1007.7000;0.5421;1.4666;
1008.0000;0.5413;1.4787;
1008.3000;0.5413;1.4860;
1008.6000;0.5486;1.5030;
1008.9000;0.5446;1.4933;
1009.2000;0.5438;1.4909;
1009.5000;0.5421;1.4884;
1009.8000;0.5421;1.4860;
1010.1000;0.5429;1.4884;
1010.4000;0.5429;1.4957;
1010.7000;0.5429;1.4860;
1011.0000;0.5397;1.4714;
1011.3000;0.5429;1.4714;
1011.6000;0.5421;1.4714;
1011.9000;0.5421;1.4714;
1012.2000;0.5397;1.4690;
1012.5000;0.5454;1.4933;
1012.8000;0.5446;1.4860;
1013.1000;0.5429;1.4763;
1013.4000;0.5446;1.4739;
1013.7000;0.5478;1.4860;
1014.0000;0.5446;1.4884;
1014.3000;0.5413;1.4812;
1014.6000;0.5405;1.4763;
1014.9000;0.5438;1.4836;
1015.2000;0.5438;1.4909;
1015.5000;0.5438;1.4860;
1015.8000;0.5413;1.4860;
1016.1000;0.5421;1.4933;
1016.4000;0.5413;1.4836;
1016.7000;0.5462;1.5006;
1017.0000;0.5421;1.4957;
1017.3000;0.5421;1.5006;
1017.6000;0.5421;1.5103;
1017.9000;0.5429;1.5054;
1018.2000;0.5429;1.4982;
1018.5000;0.5413;1.5006;
1018.8000;0.5446;1.5030;
1019.1000;0.5454;1.4982;
1019.4000;0.5421;1.4909;
1019.7000;0.5413;1.4836;
1020.0000;0.5454;1.4909;
1020.3000;0.5438;1.4957;
1020.6000;0.5446;1.4957;
1020.9000;0.5421;1.4982;
1021.2000;0.5421;1.5030;
1021.5000;0.5421;1.4957;
1021.8000;0.5364;1.4860;
1022.1000;0.5421;1.5006;
1022.4000;0.5389;1.4957;
1022.7000;0.5413;1.5054;
1023.0000;0.5405;1.4957;
1023.3000;0.5397;1.4884;
1023.6000;0.5462;1.5030;
1023.9000;0.5389;1.4909;
1024.2000;0.5405;1.4933;
1024.5000;0.5421;1.4933;
1024.8000;0.5429;1.4884;
1025.1000;0.5413;1.4836;
1025.4000;0.5364;1.4642;
1025.7000;0.5429;1.4812;
1026.0000;0.5429;1.4860;
1026.3000;0.5429;1.4836;
1026.6000;0.5421;1.4739;
1026.9000;0.5421;1.4787;
1027.2000;0.5381;1.4714;
1027.5000;0.5397;1.4787;
1027.8000;0.5446;1.4860;
1028.1000;0.5438;1.4982;
1028.4000;0.5438;1.5030;
1028.7000;0.5429;1.5079;
1029.0000;0.5438;1.5152;
1029.3000;0.5429;1.5152;
1029.6000;0.5429;1.5054;
1029.9000;0.5429;1.5054;
1030.2000;0.5421;1.4957;
1030.5000;0.5397;1.4884;
1030.8000;0.5405;1.4957;
1031.1000;0.5413;1.5006;
1031.4000;0.5421;1.4933;
1031.7000;0.5462;1.5006;
1032.0000;0.5429;1.4909;
1032.3000;0.5413;1.4860;
1032.6000;0.5397;1.4666;
1032.9000;0.5421;1.4690;
1033.2000;0.5413;1.4666;
1033.5000;0.5438;1.4787;
1033.8000;0.5421;1.4763;
1034.1000;0.5405;1.4763;
1034.4000;0.5438;1.4860;
1034.7000;0.5446;1.4957;
1035.0000;0.5421;1.5030;
1035.3000;0.5421;1.5006;
1035.6000;0.5429;1.4982;
1035.9000;0.5429;1.4982;
1036.2000;0.5429;1.5030;
1036.5000;0.5470;1.5103;
1036.8000;0.5421;1.4933;
1037.1000;0.5438;1.4933;
1037.4000;0.5429;1.4909;
1037.7000;0.5413;1.4884;
1038.0000;0.5429;1.4909;
1038.3000;0.5438;1.4933;
1038.6000;0.5413;1.5030;
1038.9000;0.5421;1.5054;
1039.2000;0.5429;1.5006;
1039.5000;0.5446;1.5030;
1039.8000;0.5478;1.5224;
1040.1000;0.5421;1.5103;
1040.4000;0.5421;1.5030;
1040.7000;0.5429;1.5054;
1041.0000;0.5421;1.5030;
1041.3000;0.5413;1.4933;
1041.6000;0.5348;1.4714;
1041.9000;0.5421;1.4933;
1042.2000;0.5438;1.5006;
1042.5000;0.5421;1.4957;
1042.8000;0.5429;1.4884;
1043.1000;0.5429;1.4860;
1043.4000;0.5429;1.4884;
1043.7000;0.5438;1.4836;
1044.0000;0.5438;1.4812;
1044.3000;0.5438;1.4739;
1044.6000;0.5421;1.4787;
1044.9000;0.5446;1.4787;
1045.2000;0.5429;1.4812;
1045.5000;0.5429;1.4836;
1045.8000;0.5405;1.4787;
1046.1000;0.5429;1.4763;
1046.4000;0.5413;1.4787;
1046.7000;0.5372;1.4617;
1047.0000;0.5511;1.5006;
1047.3000;0.5421;1.4884;
1047.6000;0.5446;1.4909;
1047.9000;0.5429;1.4909;
1048.2000;0.5397;1.4836;
1048.5000;0.5429;1.4933;
1048.8000;0.5421;1.4909;
1049.1000;0.5446;1.4933;
1049.4000;0.5356;1.4714;
1049.7000;0.5429;1.4933;
1050.0000;0.5438;1.4909;
1050.3000;0.5429;1.4909;
1050.6000;0.5429;1.5006;
1050.9000;0.5429;1.4957;
1051.2000;0.5429;1.4982;
1051.5000;0.5421;1.4884;
1051.8000;0.5446;1.5006;
1052.1000;0.5405;1.4860;
1052.4000;0.5478;1.5006;
1052.7000;0.5429;1.4957;
1053.0000;0.5413;1.4884;
1053.3000;0.5421;1.4884;
1053.6000;0.5429;1.4909;
1053.9000;0.5462;1.5030;
1054.2000;0.5421;1.4909;
1054.5000;0.5429;1.4836;
1054.8000;0.5413;1.4690;
1055.1000;0.5446;1.4739;
1055.4000;0.5438;1.4763;
1055.7000;0.5438;1.4836;
1056.0000;0.5429;1.4860;
1056.3000;0.5421;1.4787;
1056.6000;0.5405;1.4787;
1056.9000;0.5405;1.4690;
1057.2000;0.5413;1.4690;
1057.5000;0.5478;1.4884;
1057.8000;0.5405;1.4739;
1058.1000;0.5413;1.4836;
1058.4000;0.5429;1.4787;
1058.7000;0.5421;1.4739;
1059.0000;0.5438;1.4763;
1059.3000;0.5421;1.4666;
1059.6000;0.5413;1.4617;
1059.9000;0.5429;1.4690;
1060.2000;0.5421;1.4714;
1060.5000;0.5429;1.4739;
1060.8000;0.5413;1.4763;
1061.1000;0.5429;1.4812;
1061.4000;0.5397;1.4739;
1061.7000;0.5429;1.4933;
1062.0000;0.5405;1.4884;
1062.3000;0.5421;1.4884;
1062.6000;0.5413;1.4884;
1062.9000;0.5429;1.4909;
1063.2000;0.5421;1.4909;
1063.5000;0.5421;1.4884;
1063.8000;0.5381;1.4763;
1064.1000;0.5405;1.4836;
1064.4000;0.5438;1.4933;
1064.7000;0.5421;1.4884;
1065.0000;0.5421;1.4957;
1065.3000;0.5438;1.4957;
1065.6000;0.5421;1.4933;
1065.9000;0.5413;1.4836;
1066.2000;0.5429;1.4812;
1066.5000;0.5421;1.4787;
1066.8000;0.5413;1.4763;
1067.1000;0.5421;1.4860;
1067.4000;0.5429;1.4957;
1067.7000;0.5421;1.5006;
1068.0000;0.5421;1.5006;
1068.3000;0.5413;1.4933;
1068.6000;0.5413;1.4909;
1068.9000;0.5421;1.4982;
1069.2000;0.5421;1.4909;
1069.5000;0.5421;1.4933;
1069.8000;0.5429;1.4884;
1070.1000;0.5421;1.4884;
1070.4000;0.5421;1.4909;
1070.7000;0.5429;1.4812;
1071.0000;0.5421;1.4787;
1071.3000;0.5429;1.4763;
1071.6000;0.5429;1.4884;
1071.9000;0.5397;1.4739;
1072.2000;0.5397;1.4836;
1072.5000;0.5429;1.4836;
1072.8000;0.5397;1.4763;
1073.1000;0.5421;1.4812;
1073.4000;0.5413;1.4690;
1073.7000;0.5421;1.4666;
1074.0000;0.5446;1.4884;
1074.3000;0.5429;1.4860;
1074.6000;0.5405;1.4787;
1074.9000;0.5413;1.4787;
1075.2000;0.5429;1.4812;
1075.5000;0.5429;1.4836;
1075.8000;0.5413;1.4836;
1076.1000;0.5429;1.4836;
1076.4000;0.5429;1.4836;
1076.7000;0.5438;1.4860;
1077.0000;0.5429;1.4836;
1077.3000;0.5405;1.4690;
1077.6000;0.5421;1.4666;
1077.9000;0.5405;1.4617;
1078.2000;0.5421;1.4666;
1078.5000;0.5429;1.4739;
1078.8000;0.5413;1.4763;
1079.1000;0.5429;1.4836;
1079.4000;0.5421;1.4787;
1079.7000;0.5421;1.4812;
1080.0000;0.5405;1.4763;
1080.3000;0.5421;1.4836;
1080.6000;0.5405;1.4884;
1080.9000;0.5438;1.4957;
1081.2000;0.5413;1.4860;
1081.5000;0.5372;1.4714;
1081.8000;0.5438;1.4836;
1082.1000;0.5405;1.4787;
1082.4000;0.5454;1.4836;
1082.7000;0.5413;1.4739;
1083.0000;0.5413;1.4836;
1083.3000;0.5429;1.4836;
1083.6000;0.5421;1.4860;
1083.9000;0.5381;1.4739;
1084.2000;0.5413;1.4860;
1084.5000;0.5429;1.4836;
1084.8000;0.5413;1.4884;
1085.1000;0.5405;1.5006;
1085.4000;0.5438;1.5054;
1085.7000;0.5429;1.5030;
1086.0000;0.5429;1.5054;
1086.3000;0.5421;1.5152;
1086.6000;0.5421;1.5079;
1086.9000;0.5429;1.5103;
1087.2000;0.5429;1.5152;
1087.5000;0.5421;1.5176;
1087.8000;0.5470;1.5249;
1088.1000;0.5405;1.5103;
1088.4000;0.5413;1.5079;
1088.7000;0.5413;1.5006;
1089.0000;0.5413;1.4982;
1089.3000;0.5413;1.5006;
1089.6000;0.5413;1.5006;
1089.9000;0.5356;1.4884;
1090.2000;0.5397;1.5054;
1090.5000;0.5405;1.4982;
1090.8000;0.5405;1.4982;
1091.1000;0.5421;1.5006;
1091.4000;0.5405;1.4909;
1091.7000;0.5486;1.5127;
1092.0000;0.5397;1.4982;
1092.3000;0.5421;1.4982;
1092.6000;0.5413;1.4884;
1092.9000;0.5454;1.5006;
1093.2000;0.5364;1.4739;
1093.5000;0.5438;1.4982;
1093.8000;0.5405;1.4933;
1094.1000;0.5397;1.5006;
1094.4000;0.5413;1.5054;
1094.7000;0.5413;1.5127;
1095.0000;0.5413;1.5103;
1095.3000;0.5397;1.4957;
1095.6000;0.5413;1.5006;
1095.9000;0.5429;1.4982;
1096.2000;0.5446;1.5079;
1096.5000;0.5421;1.5030;
1096.8000;0.5446;1.5103;
1097.1000;0.5413;1.5054;
1097.4000;0.5413;1.4982;
1097.7000;0.5389;1.4909;
1098.0000;0.5413;1.4982;
1098.3000;0.5470;1.5079;
1098.6000;0.5413;1.4933;
1098.9000;0.5421;1.4933;
1099.2000;0.5429;1.4909;
1099.5000;0.5421;1.4884;
1099.8000;0.5405;1.4860;
1100.1000;0.5413;1.4836;
1100.4000;0.5438;1.4836;
1100.7000;0.5413;1.4812;
1101.0000;0.5421;1.4884;
1101.3000;0.5397;1.4739;
1101.6000;0.5421;1.4787;
1101.9000;0.5372;1.4617;
1102.2000;0.5429;1.4690;
1102.5000;0.5429;1.4666;
1102.8000;0.5421;1.4739;
1103.1000;0.5413;1.4787;
1103.4000;0.5421;1.4812;
1103.7000;0.5405;1.4860;
1104.0000;0.5421;1.4884;
1104.3000;0.5421;1.4909;
1104.6000;0.5413;1.4933;
1104.9000;0.5405;1.4909;
1105.2000;0.5429;1.4933;
1105.5000;0.5429;1.4933;
1105.8000;0.5429;1.4982;
1106.1000;0.5413;1.4933;
1106.4000;0.5421;1.5030;
1106.7000;0.5429;1.5006;
1107.0000;0.5429;1.5030;
1107.3000;0.5397;1.5006;
1107.6000;0.5421;1.4982;
1107.9000;0.5397;1.4933;
1108.2000;0.5405;1.4909;
1108.5000;0.5421;1.4933;
1108.8000;0.5438;1.5030;
1109.1000;0.5421;1.5054;
1109.4000;0.5405;1.5054;
1109.7000;0.5429;1.5127;
1110.0000;0.5405;1.5006;
1110.3000;0.5372;1.4884;
1110.6000;0.5429;1.5006;
1110.9000;0.5413;1.4933;
1111.2000;0.5429;1.5030;
1111.5000;0.5421;1.5103;
1111.8000;0.5413;1.5152;
1112.1000;0.5413;1.5006;
1112.4000;0.5421;1.5054;
1112.7000;0.5413;1.5030;
1113.0000;0.5429;1.5079;
1113.3000;0.5413;1.5006;
1113.6000;0.5429;1.4957;
1113.9000;0.5421;1.5030;
1114.2000;0.5397;1.4957;
1114.5000;0.5413;1.5079;
1114.8000;0.5413;1.5054;
1115.1000;0.5356;1.4860;
1115.4000;0.5421;1.5054;
1115.7000;0.5372;1.5006;
1116.0000;0.5421;1.5176;
1116.3000;0.5405;1.5079;
1116.6000;0.5324;1.4909;
1116.9000;0.5446;1.5249;
1117.2000;0.5389;1.5079;
1117.5000;0.5372;1.4982;
1117.8000;0.5413;1.5054;
1118.1000;0.5462;1.5127;
1118.4000;0.5413;1.5006;
1118.7000;0.5397;1.5079;
1119.0000;0.5324;1.4933;
1119.3000;0.5413;1.5127;
1119.6000;0.5405;1.5127;
1119.9000;0.5397;1.5054;
1120.2000;0.5429;1.5249;
1120.5000;0.5397;1.5200;
1120.8000;0.5405;1.5224;
1121.1000;0.5413;1.5200;
1121.4000;0.5413;1.5200;
1121.7000;0.5405;1.5176;
1122.0000;0.5421;1.5200;
1122.3000;0.5429;1.5273;
1122.6000;0.5413;1.5297;
1122.9000;0.5421;1.5152;
1123.2000;0.5413;1.5054;
1123.5000;0.5438;1.5152;
1123.8000;0.5421;1.5152;
1124.1000;0.5429;1.5249;
1124.4000;0.5413;1.5249;
1124.7000;0.5421;1.5200;
1125.0000;0.5413;1.5176;
1125.3000;0.5421;1.5224;
1125.6000;0.5405;1.5224;
1125.9000;0.5405;1.5224;
1126.2000;0.5397;1.5152;
1126.5000;0.5397;1.5224;
1126.8000;0.5413;1.5249;
1127.1000;0.5397;1.5224;
1127.4000;0.5413;1.5273;
1127.7000;0.5421;1.5224;
1128.0000;0.5405;1.5152;
1128.3000;0.5413;1.5152;
1128.6000;0.5405;1.5103;
1128.9000;0.5454;1.5322;
1129.2000;0.5405;1.5224;
1129.5000;0.5429;1.5322;
1129.8000;0.5446;1.5346;
1130.1000;0.5413;1.5297;
1130.4000;0.5364;1.5176;
1130.7000;0.5421;1.5346;
1131.0000;0.5429;1.5297;
1131.3000;0.5421;1.5273;
1131.6000;0.5389;1.5127;
1131.9000;0.5413;1.5152;
1132.2000;0.5454;1.5249;
1132.5000;0.5429;1.5176;
1132.8000;0.5421;1.5079;
1133.1000;0.5421;1.5079;
1133.4000;0.5421;1.5054;
1133.7000;0.5438;1.5103;
1134.0000;0.5438;1.5152;
1134.3000;0.5421;1.5054;
1134.6000;0.5405;1.5054;
1134.9000;0.5413;1.5054;
1135.2000;0.5429;1.5079;
1135.5000;0.5413;1.4957;
1135.8000;0.5413;1.4933;
1136.1000;0.5429;1.4957;
1136.4000;0.5421;1.4860;
1136.7000;0.5413;1.4884;
1137.0000;0.5429;1.4982;
1137.3000;0.5356;1.4860;
1137.6000;0.5405;1.4982;
1137.9000;0.5454;1.5079;
1138.2000;0.5438;1.4982;
1138.5000;0.5462;1.5054;
1138.8000;0.5470;1.5079;
1139.1000;0.5478;1.5030;
1139.4000;0.5438;1.4933;
1139.7000;0.5413;1.4957;
1140.0000;0.5478;1.5176;
1140.3000;0.5405;1.5079;
1140.6000;0.5421;1.5127;
1140.9000;0.5413;1.5152;
1141.2000;0.5486;1.5394;
1141.5000;0.5397;1.5200;
1141.8000;0.5405;1.5200;
1142.1000;0.5446;1.5273;
1142.4000;0.5421;1.5054;
1142.7000;0.5405;1.5006;
1143.0000;0.5405;1.4982;
1143.3000;0.5421;1.5079;
1143.6000;0.5413;1.5103;
1143.9000;0.5405;1.5030;
1144.2000;0.5503;1.5224;
1144.5000;0.5413;1.4957;
1144.8000;0.5421;1.5030;
1145.1000;0.5413;1.4957;
1145.4000;0.5389;1.4812;
1145.7000;0.5421;1.4933;
1146.0000;0.5397;1.4933;
1146.3000;0.5429;1.4957;
1146.6000;0.5397;1.4909;
1146.9000;0.5397;1.4982;
1147.2000;0.5421;1.4982;
1147.5000;0.5429;1.4909;
1147.8000;0.5413;1.4860;
1148.1000;0.5405;1.4909;
1148.4000;0.5429;1.5006;
1148.7000;0.5421;1.4933;
1149.0000;0.5429;1.4982;
1149.3000;0.5421;1.4909;
1149.6000;0.5413;1.4933;
1149.9000;0.5421;1.4884;
1150.2000;0.5421;1.4812;
1150.5000;0.5421;1.4739;
1150.8000;0.5405;1.4787;
1151.1000;0.5438;1.4884;
1151.4000;0.5413;1.4884;
1151.7000;0.5405;1.4860;
1152.0000;0.5413;1.4884;
1152.3000;0.5397;1.4909;
1152.6000;0.5389;1.4787;
1152.9000;0.5421;1.4860;
1153.2000;0.5413;1.4860;
1153.5000;0.5454;1.4860;
1153.8000;0.5438;1.4884;
1154.1000;0.5421;1.4787;
1154.4000;0.5470;1.4884;
1154.7000;0.5364;1.4690;
1155.0000;0.5429;1.4860;
1155.3000;0.5405;1.4836;
1155.6000;0.5429;1.4884;
1155.9000;0.5413;1.5006;
1156.2000;0.5372;1.4957;
1156.5000;0.5372;1.4982;
1156.8000;0.5413;1.5176;
1157.1000;0.5340;1.4957;
1157.4000;0.5421;1.5152;
1157.7000;0.5421;1.5103;
1158.0000;0.5397;1.4957;
1158.3000;0.5421;1.5006;
1158.6000;0.5421;1.5054;
1158.9000;0.5454;1.5054;
1159.2000;0.5421;1.4860;
1159.5000;0.5405;1.4787;
1159.8000;0.5389;1.4690;
1160.1000;0.5405;1.4714;
1160.4000;0.5413;1.4812;
1160.7000;0.5397;1.4812;
1161.0000;0.5413;1.4909;
1161.3000;0.5356;1.4787;
1161.6000;0.5413;1.4884;
1161.9000;0.5405;1.4909;
1162.2000;0.5405;1.4884;
1162.5000;0.5405;1.4884;
1162.8000;0.5413;1.4957;
1163.1000;0.5397;1.4957;
1163.4000;0.5397;1.4909;
1163.7000;0.5389;1.4933;
1164.0000;0.5421;1.5030;
1164.3000;0.5438;1.5079;
1164.6000;0.5405;1.5006;
1164.9000;0.5381;1.5103;
1165.2000;0.5413;1.5127;
1165.5000;0.5413;1.5200;
1165.8000;0.5389;1.5224;
1166.1000;0.5340;1.5103;
1166.4000;0.5405;1.5200;
1166.7000;0.5413;1.5127;
1167.0000;0.5413;1.5200;
1167.3000;0.5364;1.5103;
1167.6000;0.5397;1.5176;
1167.9000;0.5478;1.5322;
1168.2000;0.5405;1.5152;
1168.5000;0.5389;1.5103;
1168.8000;0.5421;1.5152;
1169.1000;0.5421;1.5054;
1169.4000;0.5356;1.4957;
1169.7000;0.5413;1.5079;
1170.0000;0.5429;1.5127;
1170.3000;0.5446;1.5224;
1170.6000;0.5405;1.5127;
1170.9000;0.5429;1.5176;
1171.2000;0.5405;1.5176;
1171.5000;0.5421;1.5224;
1171.8000;0.5446;1.5224;
1172.1000;0.5421;1.5224;
1172.4000;0.5421;1.5176;
1172.7000;0.5421;1.5152;
1173.0000;0.5413;1.5152;
1173.3000;0.5413;1.5152;
1173.6000;0.5405;1.5200;
1173.9000;0.5356;1.5127;
1174.2000;0.5438;1.5273;
1174.5000;0.5429;1.5152;
1174.8000;0.5405;1.5079;
1175.1000;0.5413;1.5079;
1175.4000;0.5413;1.5054;
1175.7000;0.5413;1.4982;
1176.0000;0.5413;1.5054;
1176.3000;0.5429;1.5030;
1176.6000;0.5397;1.5006;
1176.9000;0.5372;1.4982;
1177.2000;0.5413;1.5054;
1177.5000;0.5405;1.5079;
1177.8000;0.5405;1.5127;
1178.1000;0.5405;1.5200;
1178.4000;0.5478;1.5492;
1178.7000;0.5389;1.5176;
1179.0000;0.5397;1.5176;
1179.3000;0.5340;1.5079;
1179.6000;0.5413;1.5224;
1179.9000;0.5421;1.5152;
1180.2000;0.5381;1.5030;
1180.5000;0.5413;1.5127;
1180.8000;0.5413;1.5127;
1181.1000;0.5478;1.5249;
1181.4000;0.5397;1.5127;
1181.7000;0.5413;1.5127;
1182.0000;0.5413;1.5127;
1182.3000;0.5413;1.5152;
1182.6000;0.5413;1.5200;
1182.9000;0.5405;1.5224;
1183.2000;0.5389;1.5176;
1183.5000;0.5421;1.5176;
1183.8000;0.5413;1.5103;
1184.1000;0.5405;1.5127;
1184.4000;0.5421;1.5127;
1184.7000;0.5438;1.5079;
1185.0000;0.5413;1.5054;
1185.3000;0.5413;1.4909;
1185.6000;0.5405;1.4860;
1185.9000;0.5446;1.4860;
1186.2000;0.5413;1.4739;
1186.5000;0.5421;1.4739;
1186.8000;0.5421;1.4812;
1187.1000;0.5405;1.4860;
1187.4000;0.5413;1.4933;
1187.7000;0.5389;1.4860;
1188.0000;0.5421;1.4957;
1188.3000;0.5397;1.4836;
1188.6000;0.5413;1.4787;
1188.9000;0.5421;1.4763;
1189.2000;0.5421;1.4812;
1189.5000;0.5413;1.4909;
1189.8000;0.5429;1.4884;
1190.1000;0.5413;1.4836;
1190.4000;0.5446;1.4884;
1190.7000;0.5429;1.4836;
1191.0000;0.5429;1.4812;
1191.3000;0.5364;1.4642;
1191.6000;0.5389;1.4739;
1191.9000;0.5405;1.4860;
1192.2000;0.5413;1.4836;
1192.5000;0.5421;1.4860;
1192.8000;0.5397;1.4884;
1193.1000;0.5397;1.4836;
1193.4000;0.5405;1.4836;
1193.7000;0.5397;1.4860;
1194.0000;0.5397;1.4836;
1194.3000;0.5397;1.4812;
1194.6000;0.5413;1.4836;
1194.9000;0.5413;1.4739;
1195.2000;0.5413;1.4812;
1195.5000;0.5413;1.4836;
1195.8000;0.5421;1.4836;
1196.1000;0.5421;1.4860;
1196.4000;0.5389;1.4836;
1196.7000;0.5405;1.4884;
1197.0000;0.5397;1.4909;
1197.3000;0.5421;1.4982;
1197.6000;0.5421;1.4933;
1197.9000;0.5405;1.4909;
1198.2000;0.5429;1.4933;
1198.5000;0.5397;1.4787;
1198.8000;0.5421;1.4812;
1199.1000;0.5389;1.4836;
1199.4000;0.5397;1.4933;
1199.7000;0.5413;1.5006;
1200.0000;0.5405;1.4957;
1200.3000;0.5454;1.5030;
1200.6000;0.5421;1.5006;
1200.9000;0.5421;1.5103;
1201.2000;0.5429;1.5176;
1201.5000;0.5438;1.5200;
1201.8000;0.5421;1.5079;
1202.1000;0.5421;1.5079;
1202.4000;0.5421;1.5079;
1202.7000;0.5405;1.5152;
1203.0000;0.5397;1.5127;
1203.3000;0.5389;1.5030;
1203.6000;0.5405;1.5006;
1203.9000;0.5397;1.5006;
1204.2000;0.5397;1.5030;
1204.5000;0.5389;1.5030;
1204.8000;0.5405;1.5030;
1205.1000;0.5397;1.4982;
1205.4000;0.5405;1.4909;
1205.7000;0.5413;1.4787;
1206.0000;0.5397;1.4690;
1206.3000;0.5421;1.4714;
1206.6000;0.5405;1.4666;
1206.9000;0.5397;1.4642;
1207.2000;0.5389;1.4739;
1207.5000;0.5413;1.4812;
1207.8000;0.5421;1.4860;
1208.1000;0.5421;1.4933;
1208.4000;0.5421;1.5006;
1208.7000;0.5397;1.4982;
1209.0000;0.5405;1.4957;
1209.3000;0.5446;1.5127;
1209.6000;0.5413;1.5079;
1209.9000;0.5405;1.5152;
1210.2000;0.5397;1.5054;
1210.5000;0.5397;1.5030;
1210.8000;0.5413;1.4982;
1211.1000;0.5389;1.5006;
1211.4000;0.5389;1.5079;
1211.7000;0.5397;1.4957;
1212.0000;0.5446;1.5079;
1212.3000;0.5405;1.4884;
1212.6000;0.5381;1.4884;
1212.9000;0.5413;1.5030;
1213.2000;0.5364;1.4909;
1213.5000;0.5397;1.5030;
1213.8000;0.5413;1.5054;
1214.1000;0.5413;1.5079;
1214.4000;0.5381;1.5054;
1214.7000;0.5397;1.5054;
1215.0000;0.5389;1.5079;
1215.3000;0.5397;1.5127;
1215.6000;0.5405;1.5176;
1215.9000;0.5381;1.5152;
1216.2000;0.5405;1.5176;
1216.5000;0.5397;1.5249;
1216.8000;0.5421;1.5273;
1217.1000;0.5413;1.5224;
1217.4000;0.5421;1.5273;
1217.7000;0.5413;1.5152;
1218.0000;0.5438;1.5079;
1218.3000;0.5413;1.5006;
1218.6000;0.5429;1.4957;
1218.9000;0.5429;1.5006;
1219.2000;0.5429;1.5054;
1219.5000;0.5421;1.5006;
1219.8000;0.5405;1.5006;
1220.1000;0.5421;1.4957;
1220.4000;0.5421;1.4933;
1220.7000;0.5421;1.4957;
1221.0000;0.5413;1.5054;
1221.3000;0.5372;1.4884;
1221.6000;0.5413;1.5006;
1221.9000;0.5413;1.4957;
1222.2000;0.5397;1.5006;
1222.5000;0.5413;1.5079;
1222.8000;0.5429;1.5249;
1223.1000;0.5413;1.5273;
1223.4000;0.5405;1.5224;
1223.7000;0.5397;1.5224;
1224.0000;0.5413;1.5127;
1224.3000;0.5421;1.5103;
1224.6000;0.5405;1.5054;
1224.9000;0.5405;1.4982;
1225.2000;0.5405;1.4957;
1225.5000;0.5429;1.5103;
1225.8000;0.5421;1.5079;
1226.1000;0.5413;1.5079;
1226.4000;0.5397;1.5103;
1226.7000;0.5413;1.5127;
1227.0000;0.5413;1.5079;
1227.3000;0.5405;1.5079;
1227.6000;0.5413;1.5127;
1227.9000;0.5397;1.5224;
1228.2000;0.5413;1.5249;
1228.5000;0.5429;1.5297;
1228.8000;0.5405;1.5176;
1229.1000;0.5405;1.5152;
1229.4000;0.5429;1.5224;
1229.7000;0.5405;1.5224;
1230.0000;0.5429;1.5249;
1230.3000;0.5413;1.5249;
1230.6000;0.5413;1.5249;
1230.9000;0.5413;1.5273;
1231.2000;0.5421;1.5297;
1231.5000;0.5405;1.5200;
1231.8000;0.5429;1.5152;
1232.1000;0.5340;1.4957;
1232.4000;0.5421;1.5152;
1232.7000;0.5405;1.5079;
1233.0000;0.5413;1.5200;
1233.3000;0.5356;1.5103;
1233.6000;0.5421;1.5224;
1233.9000;0.5429;1.5200;
1234.2000;0.5372;1.5030;
1234.5000;0.5454;1.5273;
1234.8000;0.5413;1.5127;
1235.1000;0.5405;1.5079;
1235.4000;0.5397;1.5054;
1235.7000;0.5438;1.5127;
1236.0000;0.5421;1.5079;
1236.3000;0.5405;1.5006;
1236.6000;0.5413;1.4982;
1236.9000;0.5413;1.5030;
1237.2000;0.5413;1.5079;
1237.5000;0.5397;1.5054;
1237.8000;0.5413;1.5079;
1238.1000;0.5421;1.5103;
1238.4000;0.5446;1.5176;
1238.7000;0.5405;1.5054;
1239.0000;0.5405;1.5054;
1239.3000;0.5372;1.4909;
1239.6000;0.5421;1.5030;
1239.9000;0.5413;1.5079;
1240.2000;0.5413;1.5200;
1240.5000;0.5315;1.5054;
1240.8000;0.5397;1.5200;
1241.1000;0.5405;1.5249;
1241.4000;0.5397;1.5297;
1241.7000;0.5405;1.5370;
1242.0000;0.5381;1.5370;
1242.3000;0.5405;1.5370;
1242.6000;0.5413;1.5346;
1242.9000;0.5389;1.5394;
1243.2000;0.5397;1.5346;
1243.5000;0.5397;1.5273;
1243.8000;0.5421;1.5249;
1244.1000;0.5397;1.5249;
1244.4000;0.5389;1.5297;
1244.7000;0.5405;1.5297;
1245.0000;0.5470;1.5492;
1245.3000;0.5389;1.5273;
1245.6000;0.5397;1.5273;
1245.9000;0.5397;1.5273;
1246.2000;0.5381;1.5224;
1246.5000;0.5372;1.5249;
1246.8000;0.5389;1.5200;
1247.1000;0.5397;1.5200;
1247.4000;0.5405;1.5152;
1247.7000;0.5405;1.5103;
1248.0000;0.5372;1.5079;
1248.3000;0.5413;1.5152;
1248.6000;0.5389;1.5054;
1248.9000;0.5397;1.5079;
1249.2000;0.5397;1.5030;
1249.5000;0.5397;1.5054;
1249.8000;0.5421;1.5152;
1250.1000;0.5381;1.4982;
1250.4000;0.5421;1.5152;
1250.7000;0.5397;1.5030;
1251.0000;0.5413;1.5054;
1251.3000;0.5429;1.5103;
1251.6000;0.5413;1.5030;
1251.9000;0.5413;1.5006;
1252.2000;0.5446;1.5079;
1252.5000;0.5421;1.5054;
1252.8000;0.5421;1.5152;
1253.1000;0.5438;1.5127;
1253.4000;0.5421;1.5079;
1253.7000;0.5429;1.5176;
1254.0000;0.5372;1.5030;
1254.3000;0.5421;1.5054;
1254.6000;0.5413;1.5079;
1254.9000;0.5405;1.5030;
1255.2000;0.5413;1.5054;
1255.5000;0.5397;1.4982;
1255.8000;0.5405;1.4957;
1256.1000;0.5364;1.4836;
1256.4000;0.5413;1.4957;
1256.7000;0.5413;1.5006;
1257.0000;0.5413;1.4957;
1257.3000;0.5405;1.4982;
1257.6000;0.5429;1.5054;
1257.9000;0.5397;1.5006;
1258.2000;0.5389;1.5030;
1258.5000;0.5421;1.5200;
1258.8000;0.5438;1.5224;
1259.1000;0.5364;1.5006;
1259.4000;0.5413;1.5176;
1259.7000;0.5421;1.5273;
1260.0000;0.5372;1.5103;
1260.3000;0.5438;1.5176;
1260.6000;0.5381;1.5030;
1260.9000;0.5389;1.5054;
1261.2000;0.5372;1.4884;
1261.5000;0.5421;1.5006;
1261.8000;0.5405;1.4982;
1262.1000;0.5397;1.4909;
1262.4000;0.5429;1.5006;
1262.7000;0.5429;1.5006;
1263.0000;0.5397;1.4957;
1263.3000;0.5413;1.4933;
1263.6000;0.5413;1.4982;
1263.9000;0.5405;1.5006;
1264.2000;0.5405;1.4982;
1264.5000;0.5397;1.4982;
1264.8000;0.5381;1.4957;
1265.1000;0.5413;1.5127;
1265.4000;0.5413;1.5127;
1265.7000;0.5413;1.5176;
1266.0000;0.5429;1.5152;
1266.3000;0.5429;1.5127;
1266.6000;0.5405;1.5079;
1266.9000;0.5405;1.5006;
1267.2000;0.5389;1.4860;
1267.5000;0.5389;1.4860;
1267.8000;0.5364;1.4690;
1268.1000;0.5405;1.4690;
1268.4000;0.5356;1.4593;
1268.7000;0.5405;1.4642;
1269.0000;0.5389;1.4690;
1269.3000;0.5413;1.4787;
1269.6000;0.5413;1.4884;
1269.9000;0.5405;1.4812;
1270.2000;0.5413;1.4787;
1270.5000;0.5405;1.4739;
1270.8000;0.5389;1.4690;
1271.1000;0.5372;1.4812;
1271.4000;0.5389;1.4909;
1271.7000;0.5348;1.4812;
1272.0000;0.5372;1.4933;
1272.3000;0.5381;1.4933;
1272.6000;0.5389;1.4884;
1272.9000;0.5389;1.4933;
1273.2000;0.5397;1.4957;
1273.5000;0.5389;1.5006;
1273.8000;0.5397;1.5103;
1274.1000;0.5397;1.5103;
1274.4000;0.5421;1.5103;
1274.7000;0.5413;1.4957;
1275.0000;0.5429;1.5030;
1275.3000;0.5421;1.4957;
1275.6000;0.5421;1.4860;
1275.9000;0.5413;1.4860;
1276.2000;0.5413;1.4884;
1276.5000;0.5421;1.4957;
1276.8000;0.5421;1.4836;
1277.1000;0.5429;1.4836;
1277.4000;0.5405;1.4884;
1277.7000;0.5397;1.4787;
1278.0000;0.5381;1.4812;
1278.3000;0.5397;1.4860;
1278.6000;0.5413;1.4860;
1278.9000;0.5405;1.4860;
1279.2000;0.5413;1.4812;
1279.5000;0.5397;1.4763;
1279.8000;0.5486;1.4957;
1280.1000;0.5389;1.4714;
1280.4000;0.5389;1.4739;
1280.7000;0.5405;1.4739;
1281.0000;0.5397;1.4714;
1281.3000;0.5397;1.4690;
1281.6000;0.5405;1.4739;
1281.9000;0.5429;1.4812;
1282.2000;0.5413;1.4860;
1282.5000;0.5397;1.4909;
1282.8000;0.5413;1.4860;
1283.1000;0.5397;1.4787;
1283.4000;0.5340;1.4690;
1283.7000;0.5397;1.4884;
1284.0000;0.5389;1.4860;
1284.3000;0.5372;1.4763;
1284.6000;0.5389;1.4690;
1284.9000;0.5389;1.4690;
1285.2000;0.5372;1.4787;
1285.5000;0.5397;1.4836;
1285.8000;0.5438;1.4909;
1286.1000;0.5389;1.4787;
1286.4000;0.5503;1.5054;
1286.7000;0.5405;1.4812;
1287.0000;0.5405;1.4884;
1287.3000;0.5381;1.4884;
1287.6000;0.5381;1.5006;
1287.9000;0.5332;1.4787;
1288.2000;0.5405;1.4933;
1288.5000;0.5421;1.4957;
1288.8000;0.5413;1.4884;
1289.1000;0.5413;1.4933;
1289.4000;0.5421;1.4933;
1289.7000;0.5413;1.4909;
1290.0000;0.5413;1.4812;
1290.3000;0.5405;1.4812;
1290.6000;0.5421;1.4836;
1290.9000;0.5421;1.4933;
1291.2000;0.5413;1.4982;
1291.5000;0.5421;1.5006;
1291.8000;0.5405;1.4957;
1292.1000;0.5405;1.4957;
1292.4000;0.5381;1.4836;
1292.7000;0.5397;1.4812;
1293.0000;0.5397;1.4812;
1293.3000;0.5381;1.4812;
1293.6000;0.5438;1.4982;
1293.9000;0.5413;1.5006;
1294.2000;0.5397;1.4909;
1294.5000;0.5413;1.4884;
1294.8000;0.5405;1.4933;
1295.1000;0.5405;1.4933;
1295.4000;0.5364;1.4763;
1295.7000;0.5405;1.4860;
1296.0000;0.5405;1.4909;
1296.3000;0.5421;1.5006;
1296.6000;0.5413;1.5006;
1296.9000;0.5405;1.5030;
1297.2000;0.5421;1.5079;
1297.5000;0.5389;1.5006;
1297.8000;0.5413;1.5054;
1298.1000;0.5397;1.5054;
1298.4000;0.5389;1.4957;
1298.7000;0.5405;1.4933;
1299.0000;0.5429;1.4933;
1299.3000;0.5389;1.4787;
1299.6000;0.5405;1.4836;
1299.9000;0.5397;1.4860;
1300.2000;0.5421;1.4933;
1300.5000;0.5397;1.4909;
1300.8000;0.5397;1.4836;
1301.1000;0.5405;1.4860;
1301.4000;0.5421;1.4909;
1301.7000;0.5421;1.4836;
1302.0000;0.5389;1.4739;
1302.3000;0.5397;1.4739;
1302.6000;0.5397;1.4763;
1302.9000;0.5429;1.4860;
1303.2000;0.5413;1.4860;
1303.5000;0.5413;1.4812;
1303.8000;0.5421;1.4763;
1304.1000;0.5413;1.4714;
1304.4000;0.5397;1.4739;
1304.7000;0.5413;1.4812;
1305.0000;0.5421;1.4884;
1305.3000;0.5495;1.5103;
1305.6000;0.5356;1.4763;
1305.9000;0.5405;1.4812;
1306.2000;0.5413;1.4884;
1306.5000;0.5397;1.4982;
1306.8000;0.5389;1.4982;
1307.1000;0.5397;1.5006;
1307.4000;0.5405;1.5030;
1307.7000;0.5389;1.5079;
1308.0000;0.5356;1.4957;
1308.3000;0.5389;1.5006;
1308.6000;0.5397;1.4982;
1308.9000;0.5389;1.4957;
1309.2000;0.5397;1.4957;
1309.5000;0.5389;1.4909;
1309.8000;0.5421;1.4884;
1310.1000;0.5405;1.4836;
1310.4000;0.5421;1.4909;
1310.7000;0.5429;1.4933;
1311.0000;0.5340;1.4690;
1311.3000;0.5405;1.4909;
1311.6000;0.5429;1.4933;
1311.9000;0.5340;1.4714;
1312.2000;0.5405;1.4933;
1312.5000;0.5405;1.4933;
1312.8000;0.5397;1.4884;
1313.1000;0.5421;1.4957;
1313.4000;0.5405;1.4860;
1313.7000;0.5421;1.4884;
1314.0000;0.5413;1.4933;
1314.3000;0.5397;1.4957;
1314.6000;0.5413;1.4957;
1314.9000;0.5389;1.5006;
1315.2000;0.5405;1.5079;
1315.5000;0.5405;1.5127;
1315.8000;0.5381;1.5054;
1316.1000;0.5397;1.4957;
1316.4000;0.5397;1.5006;
1316.7000;0.5470;1.5176;
1317.0000;0.5413;1.5079;
1317.3000;0.5397;1.5103;
1317.6000;0.5405;1.5079;
1317.9000;0.5405;1.5079;
1318.2000;0.5364;1.4812;
1318.5000;0.5413;1.4957;
1318.8000;0.5389;1.4884;
1319.1000;0.5397;1.4909;
1319.4000;0.5389;1.4860;
1319.7000;0.5356;1.4763;
1320.0000;0.5421;1.5006;
1320.3000;0.5389;1.5030;
1320.6000;0.5405;1.5152;
1320.9000;0.5413;1.5152;
1321.2000;0.5429;1.5200;
1321.5000;0.5397;1.5127;
1321.8000;0.5429;1.5152;
1322.1000;0.5405;1.5152;
1322.4000;0.5389;1.5127;
1322.7000;0.5405;1.5127;
1323.0000;0.5421;1.5176;
1323.3000;0.5405;1.5127;
1323.6000;0.5421;1.5054;
1323.9000;0.5413;1.5054;
1324.2000;0.5429;1.4982;
1324.5000;0.5421;1.4884;
1324.8000;0.5429;1.4860;
1325.1000;0.5405;1.4836;
1325.4000;0.5438;1.4909;
1325.7000;0.5429;1.4860;
1326.0000;0.5405;1.4812;
1326.3000;0.5405;1.4860;
1326.6000;0.5372;1.4787;
1326.9000;0.5405;1.4957;
1327.2000;0.5429;1.5030;
1327.5000;0.5421;1.4957;
1327.8000;0.5405;1.4933;
1328.1000;0.5421;1.4982;
1328.4000;0.5381;1.4860;
1328.7000;0.5429;1.5054;
1329.0000;0.5397;1.5103;
1329.3000;0.5405;1.5152;
1329.6000;0.5389;1.5127;
1329.9000;0.5421;1.5103;
1330.2000;0.5405;1.5103;
1330.5000;0.5421;1.5127;
1330.8000;0.5405;1.5127;
1331.1000;0.5446;1.5224;
1331.4000;0.5356;1.4957;
1331.7000;0.5446;1.5224;
1332.0000;0.5421;1.5176;
1332.3000;0.5413;1.5200;
1332.6000;0.5397;1.5127;
1332.9000;0.5397;1.5127;
1333.2000;0.5397;1.5224;
1333.5000;0.5413;1.5249;
1333.8000;0.5397;1.5152;
1334.1000;0.5405;1.5152;
1334.4000;0.5405;1.5054;
1334.7000;0.5421;1.5152;
1335.0000;0.5413;1.5176;
1335.3000;0.5397;1.5200;
1335.6000;0.5381;1.5176;
1335.9000;0.5389;1.5103;
1336.2000;0.5381;1.5103;
1336.5000;0.5372;1.5030;
1336.8000;0.5405;1.5006;
1337.1000;0.5421;1.5006;
1337.4000;0.5421;1.5006;
1337.7000;0.5446;1.5103;
1338.0000;0.5397;1.5030;
1338.3000;0.5413;1.5054;
1338.6000;0.5421;1.4982;
1338.9000;0.5438;1.4884;
1339.2000;0.5389;1.4860;
1339.5000;0.5389;1.4909;
1339.8000;0.5413;1.5030;
1340.1000;0.5364;1.4909;
1340.4000;0.5397;1.4957;
1340.7000;0.5397;1.5030;
1341.0000;0.5389;1.5079;
1341.3000;0.5389;1.5103;
1341.6000;0.5397;1.5054;
1341.9000;0.5413;1.5103;
1342.2000;0.5372;1.5006;
1342.5000;0.5405;1.5103;
1342.8000;0.5397;1.5054;
1343.1000;0.5397;1.5030;
1343.4000;0.5413;1.5079;
1343.7000;0.5405;1.4982;
1344.0000;0.5397;1.4909;
1344.3000;0.5421;1.4957;
1344.6000;0.5421;1.5030;
1344.9000;0.5413;1.4982;
1345.2000;0.5413;1.4884;
1345.5000;0.5421;1.4884;
1345.8000;0.5397;1.4763;
1346.1000;0.5405;1.4690;
1346.4000;0.5421;1.4690;
1346.7000;0.5397;1.4666;
1347.0000;0.5397;1.4666;
1347.3000;0.5421;1.4690;
1347.6000;0.5413;1.4666;
1347.9000;0.5372;1.4569;
1348.2000;0.5413;1.4593;
1348.5000;0.5405;1.4569;
1348.8000;0.5405;1.4593;
1349.1000;0.5397;1.4593;
1349.4000;0.5413;1.4690;
1349.7000;0.5397;1.4714;
1350.0000;0.5405;1.4787;
1350.3000;0.5381;1.4690;
1350.6000;0.5381;1.4739;
1350.9000;0.5429;1.4763;
1351.2000;0.5397;1.4763;
1351.5000;0.5397;1.4690;
1351.8000;0.5389;1.4714;
1352.1000;0.5413;1.4739;
1352.4000;0.5405;1.4714;
1352.7000;0.5413;1.4714;
1353.0000;0.5421;1.4763;
1353.3000;0.5307;1.4472;
1353.6000;0.5397;1.4714;
1353.9000;0.5413;1.4787;
1354.2000;0.5421;1.4933;
1354.5000;0.5397;1.4860;
1354.8000;0.5413;1.4860;
1355.1000;0.5421;1.4836;
1355.4000;0.5397;1.4763;
1355.7000;0.5405;1.4714;
1356.0000;0.5389;1.4714;
1356.3000;0.5389;1.4787;
1356.6000;0.5405;1.4884;
1356.9000;0.5397;1.4957;
1357.2000;0.5413;1.5079;
1357.5000;0.5454;1.5224;
1357.8000;0.5429;1.5127;
1358.1000;0.5389;1.4982;
1358.4000;0.5413;1.4982;
1358.7000;0.5389;1.4957;
1359.0000;0.5470;1.5176;
1359.3000;0.5405;1.5054;
1359.6000;0.5405;1.5054;
1359.9000;0.5413;1.5030;
1360.2000;0.5405;1.5030;
1360.5000;0.5421;1.5006;
1360.8000;0.5405;1.5006;
1361.1000;0.5462;1.5200;
1361.4000;0.5405;1.5030;
1361.7000;0.5397;1.5030;
1362.0000;0.5438;1.5200;
1362.3000;0.5389;1.4982;
1362.6000;0.5438;1.5127;
1362.9000;0.5421;1.5127;
1363.2000;0.5389;1.5006;
1363.5000;0.5332;1.4787;
1363.8000;0.5421;1.4982;
1364.1000;0.5413;1.4957;
1364.4000;0.5454;1.5079;
1364.7000;0.5413;1.4982;
1365.0000;0.5389;1.4982;
1365.3000;0.5381;1.5030;
1365.6000;0.5389;1.5054;
1365.9000;0.5397;1.5079;
1366.2000;0.5381;1.5127;
1366.5000;0.5397;1.5054;
1366.8000;0.5405;1.4982;
1367.1000;0.5307;1.4666;
1367.4000;0.5381;1.4860;
1367.7000;0.5348;1.4763;
1368.0000;0.5397;1.4860;
1368.3000;0.5413;1.4836;
1368.6000;0.5372;1.4787;
1368.9000;0.5413;1.4933;
1369.2000;0.5421;1.4860;
1369.5000;0.5429;1.4860;
1369.8000;0.5438;1.4836;
1370.1000;0.5405;1.4763;
1370.4000;0.5421;1.4884;
1370.7000;0.5421;1.4957;
1371.0000;0.5397;1.4787;
1371.3000;0.5421;1.4739;
1371.6000;0.5421;1.4666;
1371.9000;0.5438;1.4714;
1372.2000;0.5405;1.4666;
1372.5000;0.5413;1.4739;
1372.8000;0.5397;1.4787;
1373.1000;0.5429;1.4884;
1373.4000;0.5429;1.4957;
1373.7000;0.5405;1.4933;
1374.0000;0.5381;1.4836;
1374.3000;0.5413;1.4763;
1374.6000;0.5389;1.4763;
1374.9000;0.5413;1.4739;
1375.2000;0.5438;1.4714;
1375.5000;0.5405;1.4714;
1375.8000;0.5413;1.4763;
1376.1000;0.5372;1.4593;
1376.4000;0.5405;1.4666;
1376.7000;0.5413;1.4593;
1377.0000;0.5332;1.4423;
1377.3000;0.5397;1.4642;
1377.6000;0.5389;1.4666;
1377.9000;0.5421;1.4763;
1378.2000;0.5405;1.4787;
1378.5000;0.5397;1.4739;
1378.8000;0.5397;1.4714;
1379.1000;0.5389;1.4666;
1379.4000;0.5389;1.4714;
1379.7000;0.5470;1.4909;
1380.0000;0.5389;1.4714;
1380.3000;0.5372;1.4739;
1380.6000;0.5421;1.4860;
1380.9000;0.5397;1.4812;
1381.2000;0.5381;1.4666;
1381.5000;0.5389;1.4690;
1381.8000;0.5438;1.4860;
1382.1000;0.5389;1.4763;
1382.4000;0.5486;1.5030;
1382.7000;0.5421;1.4836;
1383.0000;0.5397;1.4763;
1383.3000;0.5421;1.4739;
1383.6000;0.5381;1.4569;
1383.9000;0.5405;1.4690;
1384.2000;0.5397;1.4812;
1384.5000;0.5413;1.4909;
1384.8000;0.5397;1.4884;
1385.1000;0.5421;1.4933;
1385.4000;0.5421;1.4884;
1385.7000;0.5421;1.4884;
1386.0000;0.5389;1.4812;
1386.3000;0.5413;1.4909;
1386.6000;0.5397;1.4933;
1386.9000;0.5397;1.4982;
1387.2000;0.5413;1.4982;
1387.5000;0.5356;1.4860;
1387.8000;0.5405;1.4933;
1388.1000;0.5454;1.5054;
1388.4000;0.5405;1.5006;
1388.7000;0.5389;1.4957;
1389.0000;0.5381;1.4933;
1389.3000;0.5405;1.4982;
1389.6000;0.5405;1.5006;
1389.9000;0.5372;1.4982;
1390.2000;0.5381;1.4909;
1390.5000;0.5381;1.4909;
1390.8000;0.5389;1.4957;
1391.1000;0.5462;1.5079;
1391.4000;0.5405;1.4884;
1391.7000;0.5405;1.4836;
1392.0000;0.5413;1.4860;
1392.3000;0.5462;1.5030;
1392.6000;0.5421;1.4933;
1392.9000;0.5397;1.4909;
1393.2000;0.5405;1.4860;
1393.5000;0.5372;1.4787;
1393.8000;0.5486;1.5176;
1394.1000;0.5397;1.4957;
1394.4000;0.5397;1.4957;
1394.7000;0.5429;1.5006;
1395.0000;0.5421;1.5030;
1395.3000;0.5413;1.5006;
1395.6000;0.5324;1.4739;
1395.9000;0.5413;1.4933;
1396.2000;0.5429;1.5054;
1396.5000;0.5397;1.4933;
1396.8000;0.5405;1.4933;
1397.1000;0.5421;1.5030;
1397.4000;0.5421;1.5103;
1397.7000;0.5397;1.5030;
1398.0000;0.5413;1.5103;
1398.3000;0.5389;1.5127;
1398.6000;0.5413;1.5079;
1398.9000;0.5413;1.5103;
1399.2000;0.5381;1.4957;
1399.5000;0.5405;1.4957;
1399.8000;0.5413;1.4957;
