time/ms;Fluo/V;P700 deltaI/I x10³;
-199.8000;0.7904;1.6366;
-199.5000;0.7888;1.6293;
-199.2000;0.7904;1.6317;
-198.9000;0.7847;1.6244;
-198.6000;0.7904;1.6414;
-198.3000;0.7912;1.6511;
-198.0000;0.7880;1.6414;
-197.7000;0.7920;1.6584;
-197.4000;0.7888;1.6511;
-197.1000;0.7920;1.6511;
-196.8000;0.7896;1.6366;
-196.5000;0.7904;1.6366;
-196.2000;0.7912;1.6390;
-195.9000;0.7904;1.6293;
-195.6000;0.7896;1.6293;
-195.3000;0.7888;1.6220;
-195.0000;0.7953;1.6317;
-194.7000;0.7928;1.6293;
-194.4000;0.7912;1.6269;
-194.1000;0.7863;1.6026;
-193.8000;0.7928;1.6196;
-193.5000;0.7904;1.6171;
-193.2000;0.7912;1.6220;
-192.9000;0.7912;1.6317;
-192.6000;0.7904;1.6220;
-192.3000;0.7912;1.6196;
-192.0000;0.7945;1.6317;
-191.7000;0.7912;1.6341;
-191.4000;0.7904;1.6414;
-191.1000;0.7904;1.6390;
-190.8000;0.7920;1.6536;
-190.5000;0.7912;1.6511;
-190.2000;0.7896;1.6487;
-189.9000;0.7904;1.6608;
-189.6000;0.7855;1.6536;
-189.3000;0.7928;1.6730;
-189.0000;0.7904;1.6681;
-188.7000;0.7896;1.6730;
-188.4000;0.7896;1.6681;
-188.1000;0.7904;1.6730;
-187.8000;0.7912;1.6706;
-187.5000;0.7912;1.6706;
-187.2000;0.7896;1.6681;
-186.9000;0.7920;1.6706;
-186.6000;0.7920;1.6681;
-186.3000;0.7945;1.6754;
-186.0000;0.7904;1.6657;
-185.7000;0.7880;1.6633;
-185.4000;0.7904;1.6730;
-185.1000;0.7888;1.6560;
-184.8000;0.7896;1.6633;
-184.5000;0.7904;1.6657;
-184.2000;0.7839;1.6438;
-183.9000;0.7896;1.6560;
-183.6000;0.7920;1.6584;
-183.3000;0.7928;1.6584;
-183.0000;0.7945;1.6584;
-182.7000;0.7896;1.6487;
-182.4000;0.7896;1.6536;
-182.1000;0.7920;1.6608;
-181.8000;0.7912;1.6584;
-181.5000;0.7912;1.6608;
-181.2000;0.7896;1.6487;
-180.9000;0.7904;1.6487;
-180.6000;0.7993;1.6706;
-180.3000;0.7912;1.6633;
-180.0000;0.7904;1.6608;
-179.7000;0.7912;1.6633;
-179.4000;0.7896;1.6657;
-179.1000;0.7888;1.6608;
-178.8000;0.7888;1.6657;
-178.5000;0.7896;1.6706;
-178.2000;0.7904;1.6657;
-177.9000;0.7920;1.6754;
-177.6000;0.7904;1.6730;
-177.3000;0.7904;1.6657;
-177.0000;0.7896;1.6706;
-176.7000;0.7920;1.6706;
-176.4000;0.7855;1.6633;
-176.1000;0.7904;1.6730;
-175.8000;0.7904;1.6778;
-175.5000;0.7912;1.6803;
-175.2000;0.7920;1.6778;
-174.9000;0.7961;1.6851;
-174.6000;0.7912;1.6730;
-174.3000;0.7912;1.6657;
-174.0000;0.7920;1.6681;
-173.7000;0.7912;1.6657;
-173.4000;0.7888;1.6730;
-173.1000;0.7871;1.6633;
-172.8000;0.7904;1.6608;
-172.5000;0.7904;1.6633;
-172.2000;0.7904;1.6633;
-171.9000;0.7928;1.6633;
-171.6000;0.7912;1.6633;
-171.3000;0.7880;1.6633;
-171.0000;0.7896;1.6706;
-170.7000;0.7912;1.6730;
-170.4000;0.7888;1.6706;
-170.1000;0.7928;1.6778;
-169.8000;0.7888;1.6681;
-169.5000;0.7904;1.6778;
-169.2000;0.7937;1.6876;
-168.9000;0.7928;1.6778;
-168.6000;0.7912;1.6706;
-168.3000;0.7928;1.6681;
-168.0000;0.7880;1.6438;
-167.7000;0.7904;1.6560;
-167.4000;0.7912;1.6560;
-167.1000;0.7896;1.6584;
-166.8000;0.7912;1.6608;
-166.5000;0.7904;1.6511;
-166.2000;0.7855;1.6390;
-165.9000;0.7904;1.6560;
-165.6000;0.7863;1.6487;
-165.3000;0.7937;1.6706;
-165.0000;0.7912;1.6608;
-164.7000;0.7912;1.6584;
-164.4000;0.7928;1.6706;
-164.1000;0.7904;1.6754;
-163.8000;0.7888;1.6706;
-163.5000;0.7912;1.6681;
-163.2000;0.7888;1.6730;
-162.9000;0.7904;1.6754;
-162.6000;0.7920;1.6900;
-162.3000;0.7904;1.6827;
-162.0000;0.7896;1.6827;
-161.7000;0.7920;1.6803;
-161.4000;0.7896;1.6851;
-161.1000;0.7871;1.6681;
-160.8000;0.7912;1.6803;
-160.5000;0.7896;1.6730;
-160.2000;0.7871;1.6681;
-159.9000;0.7888;1.6681;
-159.6000;0.7912;1.6730;
-159.3000;0.7920;1.6754;
-159.0000;0.7888;1.6657;
-158.7000;0.7912;1.6633;
-158.4000;0.7904;1.6584;
-158.1000;0.7904;1.6657;
-157.8000;0.7904;1.6560;
-157.5000;0.7920;1.6511;
-157.2000;0.7871;1.6438;
-156.9000;0.7904;1.6438;
-156.6000;0.7920;1.6438;
-156.3000;0.7945;1.6560;
-156.0000;0.7912;1.6487;
-155.7000;0.7945;1.6511;
-155.4000;0.7896;1.6414;
-155.1000;0.7863;1.6341;
-154.8000;0.7888;1.6414;
-154.5000;0.7888;1.6438;
-154.2000;0.7920;1.6438;
-153.9000;0.7920;1.6438;
-153.6000;0.7920;1.6341;
-153.3000;0.7896;1.6390;
-153.0000;0.7880;1.6366;
-152.7000;0.7880;1.6463;
-152.4000;0.7880;1.6536;
-152.1000;0.7904;1.6608;
-151.8000;0.7920;1.6730;
-151.5000;0.7896;1.6657;
-151.2000;0.7896;1.6730;
-150.9000;0.7880;1.6706;
-150.6000;0.7912;1.6827;
-150.3000;0.7880;1.6706;
-150.0000;0.7904;1.6754;
-149.7000;0.7904;1.6706;
-149.4000;0.7904;1.6681;
-149.1000;0.7896;1.6633;
-148.8000;0.7888;1.6657;
-148.5000;0.7904;1.6730;
-148.2000;0.7928;1.6803;
-147.9000;0.7839;1.6463;
-147.6000;0.7896;1.6633;
-147.3000;0.7888;1.6681;
-147.0000;0.7953;1.6803;
-146.7000;0.7896;1.6608;
-146.4000;0.7896;1.6560;
-146.1000;0.7904;1.6536;
-145.8000;0.7912;1.6584;
-145.5000;0.7912;1.6560;
-145.2000;0.7896;1.6536;
-144.9000;0.7904;1.6560;
-144.6000;0.7904;1.6487;
-144.3000;0.7896;1.6536;
-144.0000;0.7896;1.6536;
-143.7000;0.7937;1.6608;
-143.4000;0.7904;1.6633;
-143.1000;0.7888;1.6487;
-142.8000;0.7888;1.6487;
-142.5000;0.7896;1.6536;
-142.2000;0.7871;1.6584;
-141.9000;0.7912;1.6657;
-141.6000;0.7912;1.6681;
-141.3000;0.7904;1.6657;
-141.0000;0.7969;1.6803;
-140.7000;0.7912;1.6633;
-140.4000;0.7920;1.6560;
-140.1000;0.7904;1.6560;
-139.8000;0.7912;1.6438;
-139.5000;0.7888;1.6366;
-139.2000;0.7928;1.6463;
-138.9000;0.7896;1.6414;
-138.6000;0.7904;1.6560;
-138.3000;0.7920;1.6584;
-138.0000;0.7912;1.6633;
-137.7000;0.7912;1.6536;
-137.4000;0.7928;1.6633;
-137.1000;0.7920;1.6706;
-136.8000;0.7912;1.6657;
-136.5000;0.7920;1.6681;
-136.2000;0.7896;1.6511;
-135.9000;0.7896;1.6511;
-135.6000;0.7904;1.6560;
-135.3000;0.7904;1.6584;
-135.0000;0.7888;1.6608;
-134.7000;0.7896;1.6608;
-134.4000;0.7920;1.6608;
-134.1000;0.7920;1.6633;
-133.8000;0.7888;1.6608;
-133.5000;0.7904;1.6657;
-133.2000;0.7896;1.6754;
-132.9000;0.7904;1.6778;
-132.6000;0.7880;1.6827;
-132.3000;0.7880;1.6803;
-132.0000;0.7912;1.6851;
-131.7000;0.7896;1.6876;
-131.4000;0.7896;1.6900;
-131.1000;0.7904;1.6851;
-130.8000;0.7871;1.6730;
-130.5000;0.7896;1.6803;
-130.2000;0.7912;1.6827;
-129.9000;0.7904;1.6876;
-129.6000;0.7888;1.6803;
-129.3000;0.7937;1.6876;
-129.0000;0.7920;1.6754;
-128.7000;0.7896;1.6706;
-128.4000;0.7888;1.6681;
-128.1000;0.7880;1.6681;
-127.8000;0.7920;1.6803;
-127.5000;0.7904;1.6803;
-127.2000;0.7912;1.6778;
-126.9000;0.7937;1.6876;
-126.6000;0.7945;1.6948;
-126.3000;0.7904;1.6851;
-126.0000;0.7896;1.6803;
-125.7000;0.7888;1.6681;
-125.4000;0.7904;1.6730;
-125.1000;0.7904;1.6560;
-124.8000;0.7896;1.6584;
-124.5000;0.7888;1.6536;
-124.2000;0.7888;1.6657;
-123.9000;0.7888;1.6706;
-123.6000;0.7896;1.6633;
-123.3000;0.7880;1.6560;
-123.0000;0.7904;1.6560;
-122.7000;0.7904;1.6511;
-122.4000;0.7912;1.6584;
-122.1000;0.7912;1.6487;
-121.8000;0.7920;1.6487;
-121.5000;0.7888;1.6487;
-121.2000;0.7912;1.6584;
-120.9000;0.7904;1.6536;
-120.6000;0.7912;1.6584;
-120.3000;0.7920;1.6511;
-120.0000;0.7928;1.6511;
-119.7000;0.7888;1.6536;
-119.4000;0.7896;1.6584;
-119.1000;0.7912;1.6536;
-118.8000;0.7928;1.6560;
-118.5000;0.7920;1.6414;
-118.2000;0.7904;1.6438;
-117.9000;0.7896;1.6414;
-117.6000;0.7937;1.6608;
-117.3000;0.7928;1.6584;
-117.0000;0.7896;1.6511;
-116.7000;0.7904;1.6560;
-116.4000;0.7904;1.6511;
-116.1000;0.7920;1.6584;
-115.8000;0.7896;1.6560;
-115.5000;0.7961;1.6730;
-115.2000;0.7912;1.6608;
-114.9000;0.7904;1.6633;
-114.6000;0.7896;1.6560;
-114.3000;0.7912;1.6608;
-114.0000;0.7928;1.6657;
-113.7000;0.7896;1.6584;
-113.4000;0.7888;1.6536;
-113.1000;0.7888;1.6463;
-112.8000;0.7904;1.6487;
-112.5000;0.7920;1.6584;
-112.2000;0.7888;1.6560;
-111.9000;0.7888;1.6560;
-111.6000;0.7896;1.6511;
-111.3000;0.7928;1.6608;
-111.0000;0.7920;1.6608;
-110.7000;0.7912;1.6608;
-110.4000;0.7912;1.6657;
-110.1000;0.7912;1.6608;
-109.8000;0.7888;1.6536;
-109.5000;0.7904;1.6584;
-109.2000;0.7912;1.6584;
-108.9000;0.7912;1.6608;
-108.6000;0.7912;1.6536;
-108.3000;0.7904;1.6536;
-108.0000;0.7912;1.6608;
-107.7000;0.7904;1.6536;
-107.4000;0.7912;1.6511;
-107.1000;0.7912;1.6414;
-106.8000;0.7904;1.6463;
-106.5000;0.7912;1.6487;
-106.2000;0.7863;1.6414;
-105.9000;0.7937;1.6584;
-105.6000;0.7896;1.6438;
-105.3000;0.7904;1.6487;
-105.0000;0.7904;1.6438;
-104.7000;0.7912;1.6487;
-104.4000;0.7896;1.6414;
-104.1000;0.7904;1.6414;
-103.8000;0.7888;1.6390;
-103.5000;0.7896;1.6536;
-103.2000;0.7904;1.6584;
-102.9000;0.7904;1.6633;
-102.6000;0.7896;1.6633;
-102.3000;0.7904;1.6633;
-102.0000;0.7912;1.6608;
-101.7000;0.7904;1.6681;
-101.4000;0.7912;1.6778;
-101.1000;0.7904;1.6706;
-100.8000;0.7928;1.6754;
-100.5000;0.7928;1.6730;
-100.2000;0.7912;1.6681;
-99.9000;0.7912;1.6608;
-99.6000;0.7896;1.6608;
-99.3000;0.7888;1.6560;
-99.0000;0.7904;1.6511;
-98.7000;0.7904;1.6414;
-98.4000;0.7912;1.6414;
-98.1000;0.7896;1.6390;
-97.8000;0.7896;1.6390;
-97.5000;0.7912;1.6438;
-97.2000;0.7896;1.6366;
-96.9000;0.7928;1.6487;
-96.6000;0.7880;1.6438;
-96.3000;0.7904;1.6487;
-96.0000;0.7896;1.6463;
-95.7000;0.7863;1.6463;
-95.4000;0.7880;1.6536;
-95.1000;0.7896;1.6633;
-94.8000;0.7920;1.6633;
-94.5000;0.7912;1.6681;
-94.2000;0.7904;1.6633;
-93.9000;0.7888;1.6584;
-93.6000;0.7888;1.6414;
-93.3000;0.7904;1.6463;
-93.0000;0.7888;1.6438;
-92.7000;0.7880;1.6414;
-92.4000;0.7823;1.6293;
-92.1000;0.7904;1.6511;
-91.8000;0.7896;1.6487;
-91.5000;0.7912;1.6414;
-91.2000;0.7904;1.6390;
-90.9000;0.7880;1.6366;
-90.6000;0.7928;1.6536;
-90.3000;0.7912;1.6438;
-90.0000;0.7920;1.6366;
-89.7000;0.7904;1.6317;
-89.4000;0.7920;1.6317;
-89.1000;0.7912;1.6269;
-88.8000;0.7912;1.6366;
-88.5000;0.7896;1.6341;
-88.2000;0.7904;1.6341;
-87.9000;0.7896;1.6341;
-87.6000;0.7896;1.6244;
-87.3000;0.7904;1.6317;
-87.0000;0.7928;1.6511;
-86.7000;0.7912;1.6438;
-86.4000;0.7888;1.6438;
-86.1000;0.7880;1.6463;
-85.8000;0.7896;1.6414;
-85.5000;0.7912;1.6341;
-85.2000;0.7904;1.6390;
-84.9000;0.7928;1.6487;
-84.6000;0.7912;1.6487;
-84.3000;0.7896;1.6463;
-84.0000;0.7945;1.6560;
-83.7000;0.7896;1.6463;
-83.4000;0.7912;1.6438;
-83.1000;0.7920;1.6463;
-82.8000;0.7912;1.6511;
-82.5000;0.7896;1.6536;
-82.2000;0.7847;1.6390;
-81.9000;0.7896;1.6438;
-81.6000;0.7880;1.6414;
-81.3000;0.7896;1.6414;
-81.0000;0.7928;1.6438;
-80.7000;0.7880;1.6366;
-80.4000;0.7896;1.6341;
-80.1000;0.7937;1.6511;
-79.8000;0.7904;1.6366;
-79.5000;0.7896;1.6390;
-79.2000;0.7896;1.6390;
-78.9000;0.7920;1.6414;
-78.6000;0.7928;1.6487;
-78.3000;0.7904;1.6438;
-78.0000;0.7888;1.6390;
-77.7000;0.7912;1.6487;
-77.4000;0.7871;1.6536;
-77.1000;0.7896;1.6657;
-76.8000;0.7904;1.6633;
-76.5000;0.7871;1.6560;
-76.2000;0.7896;1.6608;
-75.9000;0.7847;1.6438;
-75.6000;0.7896;1.6536;
-75.3000;0.7896;1.6511;
-75.0000;0.7904;1.6560;
-74.7000;0.7912;1.6511;
-74.4000;0.7912;1.6438;
-74.1000;0.7945;1.6560;
-73.8000;0.7904;1.6463;
-73.5000;0.7896;1.6584;
-73.2000;0.7904;1.6584;
-72.9000;0.7871;1.6584;
-72.6000;0.7912;1.6608;
-72.3000;0.7896;1.6608;
-72.0000;0.7904;1.6608;
-71.7000;0.7937;1.6778;
-71.4000;0.7847;1.6560;
-71.1000;0.7896;1.6584;
-70.8000;0.7880;1.6560;
-70.5000;0.7896;1.6560;
-70.2000;0.7904;1.6487;
-69.9000;0.7920;1.6511;
-69.6000;0.7928;1.6608;
-69.3000;0.7896;1.6584;
-69.0000;0.7896;1.6511;
-68.7000;0.7928;1.6560;
-68.4000;0.7912;1.6463;
-68.1000;0.7896;1.6414;
-67.8000;0.7912;1.6438;
-67.5000;0.7904;1.6414;
-67.2000;0.7896;1.6536;
-66.9000;0.7896;1.6511;
-66.6000;0.7912;1.6560;
-66.3000;0.7928;1.6584;
-66.0000;0.7912;1.6584;
-65.7000;0.7912;1.6633;
-65.4000;0.7904;1.6608;
-65.1000;0.7928;1.6633;
-64.8000;0.7847;1.6414;
-64.5000;0.7896;1.6633;
-64.2000;0.7904;1.6608;
-63.9000;0.7896;1.6633;
-63.6000;0.7904;1.6584;
-63.3000;0.7904;1.6608;
-63.0000;0.7896;1.6536;
-62.7000;0.7863;1.6366;
-62.4000;0.7912;1.6560;
-62.1000;0.7904;1.6608;
-61.8000;0.7871;1.6584;
-61.5000;0.7912;1.6706;
-61.2000;0.7912;1.6778;
-60.9000;0.7920;1.6754;
-60.6000;0.7880;1.6608;
-60.3000;0.7912;1.6633;
-60.0000;0.7928;1.6657;
-59.7000;0.7937;1.6681;
-59.4000;0.7920;1.6584;
-59.1000;0.7912;1.6560;
-58.8000;0.7937;1.6584;
-58.5000;0.7904;1.6511;
-58.2000;0.7904;1.6487;
-57.9000;0.7920;1.6560;
-57.6000;0.7920;1.6608;
-57.3000;0.7928;1.6560;
-57.0000;0.7920;1.6511;
-56.7000;0.7880;1.6341;
-56.4000;0.7985;1.6584;
-56.1000;0.7871;1.6220;
-55.8000;0.7896;1.6317;
-55.5000;0.7888;1.6244;
-55.2000;0.7831;1.6099;
-54.9000;0.7904;1.6341;
-54.6000;0.7904;1.6487;
-54.3000;0.7904;1.6536;
-54.0000;0.7904;1.6511;
-53.7000;0.7888;1.6463;
-53.4000;0.7912;1.6438;
-53.1000;0.7937;1.6438;
-52.8000;0.7904;1.6390;
-52.5000;0.7888;1.6366;
-52.2000;0.7912;1.6414;
-51.9000;0.7912;1.6463;
-51.6000;0.7888;1.6438;
-51.3000;0.7920;1.6414;
-51.0000;0.7904;1.6438;
-50.7000;0.7928;1.6536;
-50.4000;0.7912;1.6608;
-50.1000;0.7863;1.6511;
-49.8000;0.7937;1.6706;
-49.5000;0.7920;1.6633;
-49.2000;0.7904;1.6536;
-48.9000;0.7912;1.6487;
-48.6000;0.7912;1.6463;
-48.3000;0.7912;1.6536;
-48.0000;0.7904;1.6536;
-47.7000;0.7888;1.6487;
-47.4000;0.7904;1.6511;
-47.1000;0.7920;1.6560;
-46.8000;0.7912;1.6487;
-46.5000;0.7896;1.6414;
-46.2000;0.7904;1.6414;
-45.9000;0.7920;1.6536;
-45.6000;0.7888;1.6414;
-45.3000;0.7896;1.6438;
-45.0000;0.7896;1.6487;
-44.7000;0.7888;1.6463;
-44.4000;0.7896;1.6438;
-44.1000;0.7888;1.6463;
-43.8000;0.7896;1.6487;
-43.5000;0.7912;1.6560;
-43.2000;0.7904;1.6608;
-42.9000;0.7904;1.6511;
-42.6000;0.7896;1.6511;
-42.3000;0.7904;1.6536;
-42.0000;0.7920;1.6584;
-41.7000;0.7896;1.6438;
-41.4000;0.7920;1.6341;
-41.1000;0.7912;1.6366;
-40.8000;0.7920;1.6487;
-40.5000;0.7904;1.6463;
-40.2000;0.7912;1.6511;
-39.9000;0.7912;1.6463;
-39.6000;0.7896;1.6414;
-39.3000;0.7912;1.6463;
-39.0000;0.7871;1.6366;
-38.7000;0.7912;1.6463;
-38.4000;0.7961;1.6608;
-38.1000;0.7863;1.6293;
-37.8000;0.7880;1.6438;
-37.5000;0.7912;1.6584;
-37.2000;0.7912;1.6608;
-36.9000;0.7920;1.6681;
-36.6000;0.7896;1.6681;
-36.3000;0.7880;1.6633;
-36.0000;0.7904;1.6657;
-35.7000;0.7896;1.6608;
-35.4000;0.7863;1.6438;
-35.1000;0.7896;1.6560;
-34.8000;0.7904;1.6584;
-34.5000;0.7888;1.6560;
-34.2000;0.7888;1.6536;
-33.9000;0.7904;1.6536;
-33.6000;0.7961;1.6706;
-33.3000;0.7904;1.6633;
-33.0000;0.7937;1.6706;
-32.7000;0.7912;1.6681;
-32.4000;0.7969;1.6803;
-32.1000;0.7937;1.6681;
-31.8000;0.7904;1.6681;
-31.5000;0.7920;1.6706;
-31.2000;0.7896;1.6730;
-30.9000;0.7928;1.6778;
-30.6000;0.7896;1.6754;
-30.3000;0.7920;1.6706;
-30.0000;0.7847;1.6560;
-29.7000;0.7904;1.6706;
-29.4000;0.7904;1.6633;
-29.1000;0.7920;1.6706;
-28.8000;0.7912;1.6657;
-28.5000;0.7904;1.6657;
-28.2000;0.7904;1.6608;
-27.9000;0.7904;1.6584;
-27.6000;0.7937;1.6560;
-27.3000;0.7912;1.6463;
-27.0000;0.7912;1.6438;
-26.7000;0.7961;1.6633;
-26.4000;0.7896;1.6487;
-26.1000;0.7896;1.6366;
-25.8000;0.7896;1.6366;
-25.5000;0.7912;1.6463;
-25.2000;0.7912;1.6536;
-24.9000;0.7904;1.6536;
-24.6000;0.7920;1.6584;
-24.3000;0.7896;1.6511;
-24.0000;0.7928;1.6584;
-23.7000;0.7904;1.6438;
-23.4000;0.7920;1.6487;
-23.1000;0.7888;1.6414;
-22.8000;0.7912;1.6463;
-22.5000;0.7912;1.6463;
-22.2000;0.7912;1.6511;
-21.9000;0.7904;1.6560;
-21.6000;0.7904;1.6511;
-21.3000;0.7977;1.6681;
-21.0000;0.7912;1.6511;
-20.7000;0.7904;1.6463;
-20.4000;0.7920;1.6487;
-20.1000;0.7904;1.6438;
-19.8000;0.7904;1.6487;
-19.5000;0.7912;1.6511;
-19.2000;0.7912;1.6536;
-18.9000;0.7904;1.6511;
-18.6000;0.7912;1.6463;
-18.3000;0.7937;1.6511;
-18.0000;0.7912;1.6366;
-17.7000;0.7904;1.6341;
-17.4000;0.7928;1.6341;
-17.1000;0.7904;1.6317;
-16.8000;0.7928;1.6366;
-16.5000;0.7904;1.6293;
-16.2000;0.7928;1.6317;
-15.9000;0.7904;1.6366;
-15.6000;0.7904;1.6341;
-15.3000;0.7912;1.6390;
-15.0000;0.7904;1.6390;
-14.7000;0.7904;1.6341;
-14.4000;0.7888;1.6244;
-14.1000;0.7888;1.6244;
-13.8000;0.7896;1.6317;
-13.5000;0.7888;1.6269;
-13.2000;0.7953;1.6317;
-12.9000;0.7904;1.6171;
-12.6000;0.7912;1.6147;
-12.3000;0.7847;1.6001;
-12.0000;0.7904;1.6220;
-11.7000;0.7888;1.6196;
-11.4000;0.7904;1.6390;
-11.1000;0.7928;1.6536;
-10.8000;0.7912;1.6463;
-10.5000;0.7904;1.6511;
-10.2000;0.7920;1.6511;
-9.9000;0.7888;1.6390;
-9.6000;0.7912;1.6463;
-9.3000;0.7896;1.6511;
-9.0000;0.7888;1.6536;
-8.7000;0.7896;1.6463;
-8.4000;0.7896;1.6414;
-8.1000;0.7863;1.6341;
-7.8000;0.7896;1.6438;
-7.5000;0.7896;1.6463;
-7.2000;0.7888;1.6511;
-6.9000;0.7912;1.6681;
-6.6000;0.7912;1.6681;
-6.3000;0.7904;1.6681;
-6.0000;0.7928;1.6754;
-5.7000;0.7904;1.6730;
-5.4000;0.7896;1.6633;
-5.1000;0.7904;1.6608;
-4.8000;0.7904;1.6633;
-4.5000;0.7912;1.6608;
-4.2000;0.7912;1.6633;
-3.9000;0.7904;1.6657;
-3.6000;0.7904;1.6633;
-3.3000;0.7904;1.6657;
-3.0000;0.7904;1.6633;
-2.7000;0.7888;1.6584;
-2.4000;0.7896;1.6584;
-2.1000;0.7896;1.6584;
-1.8000;0.7888;1.6633;
-1.5000;0.7888;1.6730;
-1.2000;0.7896;1.6681;
-0.9000;0.7896;1.6681;
-0.6000;0.7904;1.6706;
-0.3000;0.7888;1.6681;
0.0000;0.7888;1.6681;
0.3000;0.8010;1.6778;
0.6000;0.8205;1.7118;
0.9000;0.8335;1.7458;
1.2000;0.8466;1.7798;
1.5000;0.8547;1.8090;
1.8000;0.8645;1.8405;
2.1000;0.8677;1.8648;
2.4000;0.8742;1.8818;
2.7000;0.8791;1.8964;
3.0000;0.8824;1.9061;
3.3000;0.8864;1.9182;
3.6000;0.8905;1.9328;
3.9000;0.8938;1.9498;
4.2000;0.8938;1.9522;
4.5000;0.8962;1.9522;
4.8000;0.8995;1.9619;
5.1000;0.8987;1.9716;
5.4000;0.9019;1.9741;
5.7000;0.9019;1.9692;
6.0000;0.9060;1.9692;
6.3000;0.9060;1.9692;
6.6000;0.9076;1.9716;
6.9000;0.9092;1.9789;
7.2000;0.9092;1.9789;
7.5000;0.9109;1.9838;
7.8000;0.9141;1.9911;
8.1000;0.9133;1.9789;
8.4000;0.9149;1.9789;
8.7000;0.9158;1.9814;
9.0000;0.9166;1.9886;
9.3000;0.9190;1.9911;
9.6000;0.9190;1.9935;
9.9000;0.9149;1.9838;
10.2000;0.9190;1.9935;
10.5000;0.9247;2.0056;
10.8000;0.9231;1.9984;
11.1000;0.9223;1.9959;
11.4000;0.9231;1.9959;
11.7000;0.9247;1.9935;
12.0000;0.9271;1.9959;
12.3000;0.9247;1.9886;
12.6000;0.9271;1.9984;
12.9000;0.9288;2.0032;
13.2000;0.9288;2.0056;
13.5000;0.9280;2.0032;
13.8000;0.9288;2.0008;
14.1000;0.9288;2.0008;
14.4000;0.9312;2.0032;
14.7000;0.9312;1.9911;
15.0000;0.9312;1.9814;
15.3000;0.9328;1.9765;
15.6000;0.9320;1.9838;
15.9000;0.9353;1.9886;
16.2000;0.9328;1.9886;
16.5000;0.9328;1.9886;
16.8000;0.9337;1.9911;
17.1000;0.9369;1.9911;
17.4000;0.9328;1.9789;
17.7000;0.9345;1.9814;
18.0000;0.9337;1.9814;
18.3000;0.9369;1.9911;
18.6000;0.9369;1.9886;
18.9000;0.9377;1.9862;
19.2000;0.9369;1.9862;
19.5000;0.9394;1.9935;
19.8000;0.9410;1.9935;
20.1000;0.9361;1.9911;
20.4000;0.9312;1.9838;
20.7000;0.9385;2.0105;
21.0000;0.9385;2.0056;
21.3000;0.9402;2.0008;
21.6000;0.9410;1.9959;
21.9000;0.9402;1.9911;
22.2000;0.9418;1.9911;
22.5000;0.9434;1.9959;
22.8000;0.9418;1.9862;
23.1000;0.9394;1.9789;
23.4000;0.9426;1.9765;
23.7000;0.9426;1.9789;
24.0000;0.9434;1.9765;
24.3000;0.9418;1.9741;
24.6000;0.9410;1.9765;
24.9000;0.9434;1.9935;
25.2000;0.9434;1.9959;
25.5000;0.9459;1.9935;
25.8000;0.9451;1.9959;
26.1000;0.9451;1.9911;
26.4000;0.9467;1.9886;
26.7000;0.9491;2.0105;
27.0000;0.9475;2.0056;
27.3000;0.9524;2.0178;
27.6000;0.9451;2.0056;
27.9000;0.9459;1.9959;
28.2000;0.9442;2.0032;
28.5000;0.9451;2.0008;
28.8000;0.9442;1.9984;
29.1000;0.9442;2.0056;
29.4000;0.9451;2.0056;
29.7000;0.9459;2.0154;
30.0000;0.9475;2.0154;
30.3000;0.9475;2.0202;
30.6000;0.9459;2.0129;
30.9000;0.9483;2.0081;
31.2000;0.9483;2.0129;
31.5000;0.9475;2.0081;
31.8000;0.9475;1.9959;
32.1000;0.9483;1.9959;
32.4000;0.9491;1.9935;
32.7000;0.9483;1.9935;
33.0000;0.9459;1.9862;
33.3000;0.9467;1.9886;
33.6000;0.9475;1.9886;
33.9000;0.9491;1.9886;
34.2000;0.9475;1.9959;
34.5000;0.9508;2.0032;
34.8000;0.9483;2.0032;
35.1000;0.9491;1.9959;
35.4000;0.9556;2.0105;
35.7000;0.9499;2.0032;
36.0000;0.9491;2.0056;
36.3000;0.9516;2.0129;
36.6000;0.9499;2.0008;
36.9000;0.9499;2.0032;
37.2000;0.9499;1.9935;
37.5000;0.9434;1.9789;
37.8000;0.9499;2.0056;
38.1000;0.9483;2.0105;
38.4000;0.9491;2.0129;
38.7000;0.9491;2.0129;
39.0000;0.9491;2.0032;
39.3000;0.9483;1.9935;
39.6000;0.9491;1.9935;
39.9000;0.9508;2.0056;
40.2000;0.9491;2.0056;
40.5000;0.9491;2.0008;
40.8000;0.9491;2.0008;
41.1000;0.9516;2.0008;
41.4000;0.9508;1.9959;
41.7000;0.9524;1.9935;
42.0000;0.9499;2.0008;
42.3000;0.9556;2.0251;
42.6000;0.9499;2.0056;
42.9000;0.9499;2.0032;
43.2000;0.9508;2.0032;
43.5000;0.9499;1.9935;
43.8000;0.9516;1.9935;
44.1000;0.9508;1.9886;
44.4000;0.9524;2.0008;
44.7000;0.9516;1.9984;
45.0000;0.9516;1.9984;
45.3000;0.9508;1.9886;
45.6000;0.9508;1.9911;
45.9000;0.9516;1.9984;
46.2000;0.9508;1.9935;
46.5000;0.9516;1.9911;
46.8000;0.9524;1.9935;
47.1000;0.9516;1.9814;
47.4000;0.9516;1.9789;
47.7000;0.9516;1.9789;
48.0000;0.9524;1.9838;
48.3000;0.9524;1.9789;
48.6000;0.9467;1.9668;
48.9000;0.9524;1.9716;
49.2000;0.9499;1.9765;
49.5000;0.9499;1.9741;
49.8000;0.9434;1.9619;
50.1000;0.9483;1.9814;
50.4000;0.9524;1.9911;
50.7000;0.9532;1.9959;
51.0000;0.9508;1.9984;
51.3000;0.9516;1.9984;
51.6000;0.9516;2.0081;
51.9000;0.9508;1.9935;
52.2000;0.9516;1.9959;
52.5000;0.9499;1.9911;
52.8000;0.9491;1.9935;
53.1000;0.9516;2.0008;
53.4000;0.9508;1.9911;
53.7000;0.9532;2.0008;
54.0000;0.9499;1.9959;
54.3000;0.9467;1.9765;
54.6000;0.9516;1.9862;
54.9000;0.9508;1.9886;
55.2000;0.9524;1.9838;
55.5000;0.9524;1.9862;
55.8000;0.9516;1.9838;
56.1000;0.9508;1.9838;
56.4000;0.9516;1.9838;
56.7000;0.9508;1.9814;
57.0000;0.9491;1.9814;
57.3000;0.9524;1.9959;
57.6000;0.9573;2.0081;
57.9000;0.9516;1.9838;
58.2000;0.9516;1.9814;
58.5000;0.9491;1.9789;
58.8000;0.9499;1.9789;
59.1000;0.9516;1.9814;
59.4000;0.9516;1.9765;
59.7000;0.9516;1.9741;
60.0000;0.9508;1.9692;
60.3000;0.9532;1.9814;
60.6000;0.9475;1.9741;
60.9000;0.9548;1.9838;
61.2000;0.9516;1.9765;
61.5000;0.9532;1.9838;
61.8000;0.9540;1.9862;
62.1000;0.9467;1.9716;
62.4000;0.9532;1.9862;
62.7000;0.9540;1.9838;
63.0000;0.9516;1.9814;
63.3000;0.9524;1.9838;
63.6000;0.9516;1.9789;
63.9000;0.9589;1.9935;
64.2000;0.9524;1.9838;
64.5000;0.9548;1.9886;
64.8000;0.9508;1.9814;
65.1000;0.9516;1.9862;
65.4000;0.9532;1.9935;
65.7000;0.9524;1.9984;
66.0000;0.9516;1.9911;
66.3000;0.9499;1.9789;
66.6000;0.9524;1.9814;
66.9000;0.9540;1.9814;
67.2000;0.9540;1.9838;
67.5000;0.9532;1.9741;
67.8000;0.9516;1.9692;
68.1000;0.9524;1.9692;
68.4000;0.9532;1.9716;
68.7000;0.9508;1.9644;
69.0000;0.9516;1.9595;
69.3000;0.9540;1.9644;
69.6000;0.9532;1.9595;
69.9000;0.9524;1.9595;
70.2000;0.9516;1.9668;
70.5000;0.9516;1.9644;
70.8000;0.9532;1.9741;
71.1000;0.9524;1.9765;
71.4000;0.9532;1.9886;
71.7000;0.9499;1.9814;
72.0000;0.9524;1.9862;
72.3000;0.9532;1.9984;
72.6000;0.9524;1.9935;
72.9000;0.9516;1.9789;
73.2000;0.9532;1.9838;
73.5000;0.9532;1.9862;
73.8000;0.9483;1.9814;
74.1000;0.9516;1.9838;
74.4000;0.9540;1.9814;
74.7000;0.9532;1.9838;
75.0000;0.9532;1.9838;
75.3000;0.9532;1.9911;
75.6000;0.9508;1.9838;
75.9000;0.9491;1.9765;
76.2000;0.9524;1.9862;
76.5000;0.9524;1.9838;
76.8000;0.9532;1.9789;
77.1000;0.9516;1.9716;
77.4000;0.9524;1.9668;
77.7000;0.9540;1.9692;
78.0000;0.9524;1.9644;
78.3000;0.9540;1.9692;
78.6000;0.9532;1.9765;
78.9000;0.9508;1.9716;
79.2000;0.9516;1.9765;
79.5000;0.9524;1.9838;
79.8000;0.9491;1.9716;
80.1000;0.9508;1.9692;
80.4000;0.9516;1.9741;
80.7000;0.9532;1.9862;
81.0000;0.9516;1.9814;
81.3000;0.9524;1.9911;
81.6000;0.9524;1.9911;
81.9000;0.9451;1.9716;
82.2000;0.9589;1.9886;
82.5000;0.9524;1.9838;
82.8000;0.9548;1.9911;
83.1000;0.9483;1.9716;
83.4000;0.9524;1.9789;
83.7000;0.9508;1.9789;
84.0000;0.9573;1.9935;
84.3000;0.9516;1.9789;
84.6000;0.9581;2.0008;
84.9000;0.9581;2.0081;
85.2000;0.9524;1.9959;
85.5000;0.9508;1.9911;
85.8000;0.9516;1.9911;
86.1000;0.9532;1.9838;
86.4000;0.9499;1.9692;
86.7000;0.9524;1.9741;
87.0000;0.9532;1.9741;
87.3000;0.9565;1.9789;
87.6000;0.9524;1.9741;
87.9000;0.9532;1.9716;
88.2000;0.9581;1.9862;
88.5000;0.9459;1.9668;
88.8000;0.9532;1.9959;
89.1000;0.9516;1.9911;
89.4000;0.9508;1.9862;
89.7000;0.9499;1.9911;
90.0000;0.9516;1.9862;
90.3000;0.9516;1.9862;
90.6000;0.9508;1.9814;
90.9000;0.9508;1.9789;
91.2000;0.9508;1.9814;
91.5000;0.9516;1.9789;
91.8000;0.9508;1.9814;
92.1000;0.9516;1.9789;
92.4000;0.9516;1.9862;
92.7000;0.9516;1.9862;
93.0000;0.9532;1.9789;
93.3000;0.9467;1.9668;
93.6000;0.9524;1.9789;
93.9000;0.9499;1.9668;
94.2000;0.9524;1.9765;
94.5000;0.9483;1.9619;
94.8000;0.9499;1.9668;
95.1000;0.9524;1.9692;
95.4000;0.9532;1.9644;
95.7000;0.9508;1.9716;
96.0000;0.9516;1.9789;
96.3000;0.9573;1.9862;
96.6000;0.9516;1.9741;
96.9000;0.9516;1.9741;
97.2000;0.9499;1.9741;
97.5000;0.9516;1.9789;
97.8000;0.9524;1.9765;
98.1000;0.9524;1.9814;
98.4000;0.9508;1.9789;
98.7000;0.9573;1.9984;
99.0000;0.9483;1.9692;
99.3000;0.9524;1.9789;
99.6000;0.9508;1.9765;
99.9000;0.9516;1.9741;
100.2000;0.9516;1.9741;
100.5000;0.9516;1.9692;
100.8000;0.9491;1.9619;
101.1000;0.9524;1.9668;
101.4000;0.9499;1.9644;
101.7000;0.9532;1.9765;
102.0000;0.9532;1.9668;
102.3000;0.9516;1.9619;
102.6000;0.9516;1.9619;
102.9000;0.9532;1.9716;
103.2000;0.9532;1.9765;
103.5000;0.9508;1.9716;
103.8000;0.9516;1.9716;
104.1000;0.9532;1.9692;
104.4000;0.9540;1.9692;
104.7000;0.9524;1.9571;
105.0000;0.9540;1.9668;
105.3000;0.9524;1.9765;
105.6000;0.9491;1.9765;
105.9000;0.9524;1.9838;
106.2000;0.9508;1.9838;
106.5000;0.9499;1.9838;
106.8000;0.9483;1.9741;
107.1000;0.9499;1.9716;
107.4000;0.9589;1.9959;
107.7000;0.9581;1.9935;
108.0000;0.9524;1.9862;
108.3000;0.9499;1.9789;
108.6000;0.9508;1.9862;
108.9000;0.9418;1.9692;
109.2000;0.9508;2.0105;
109.5000;0.9516;2.0081;
109.8000;0.9508;1.9984;
110.1000;0.9499;1.9911;
110.4000;0.9516;1.9886;
110.7000;0.9532;1.9789;
111.0000;0.9516;1.9644;
111.3000;0.9508;1.9668;
111.6000;0.9499;1.9716;
111.9000;0.9516;1.9668;
112.2000;0.9516;1.9692;
112.5000;0.9508;1.9789;
112.8000;0.9524;1.9789;
113.1000;0.9524;1.9716;
113.4000;0.9524;1.9692;
113.7000;0.9508;1.9595;
114.0000;0.9516;1.9668;
114.3000;0.9524;1.9716;
114.6000;0.9516;1.9789;
114.9000;0.9532;1.9838;
115.2000;0.9524;1.9886;
115.5000;0.9524;1.9862;
115.8000;0.9532;1.9741;
116.1000;0.9516;1.9716;
116.4000;0.9499;1.9716;
116.7000;0.9597;1.9935;
117.0000;0.9532;1.9789;
117.3000;0.9532;1.9765;
117.6000;0.9508;1.9716;
117.9000;0.9508;1.9814;
118.2000;0.9524;1.9789;
118.5000;0.9508;1.9765;
118.8000;0.9516;1.9814;
119.1000;0.9508;1.9716;
119.4000;0.9532;1.9862;
119.7000;0.9646;2.0251;
120.0000;0.9508;1.9911;
120.3000;0.9532;1.9959;
120.6000;0.9540;1.9959;
120.9000;0.9540;1.9984;
121.2000;0.9524;1.9959;
121.5000;0.9524;1.9886;
121.8000;0.9524;1.9789;
122.1000;0.9516;1.9789;
122.4000;0.9516;1.9814;
122.7000;0.9499;1.9814;
123.0000;0.9508;1.9838;
123.3000;0.9508;1.9862;
123.6000;0.9516;1.9886;
123.9000;0.9508;1.9911;
124.2000;0.9524;1.9935;
124.5000;0.9491;1.9886;
124.8000;0.9516;1.9911;
125.1000;0.9516;1.9862;
125.4000;0.9516;1.9911;
125.7000;0.9524;1.9935;
126.0000;0.9508;1.9911;
126.3000;0.9508;1.9765;
126.6000;0.9508;1.9741;
126.9000;0.9499;1.9692;
127.2000;0.9508;1.9716;
127.5000;0.9524;1.9789;
127.8000;0.9499;1.9765;
128.1000;0.9516;1.9814;
128.4000;0.9524;1.9838;
128.7000;0.9516;1.9862;
129.0000;0.9516;1.9886;
129.3000;0.9516;1.9814;
129.6000;0.9508;1.9814;
129.9000;0.9524;1.9959;
130.2000;0.9516;1.9886;
130.5000;0.9524;1.9911;
130.8000;0.9516;1.9935;
131.1000;0.9524;2.0008;
131.4000;0.9516;1.9935;
131.7000;0.9508;1.9838;
132.0000;0.9516;1.9838;
132.3000;0.9524;1.9886;
132.6000;0.9524;1.9838;
132.9000;0.9556;1.9886;
133.2000;0.9499;1.9741;
133.5000;0.9516;1.9789;
133.8000;0.9516;1.9935;
134.1000;0.9451;1.9789;
134.4000;0.9499;1.9911;
134.7000;0.9524;1.9959;
135.0000;0.9524;1.9959;
135.3000;0.9532;1.9886;
135.6000;0.9516;1.9911;
135.9000;0.9532;1.9911;
136.2000;0.9524;1.9862;
136.5000;0.9516;1.9838;
136.8000;0.9516;1.9862;
137.1000;0.9508;1.9911;
137.4000;0.9524;1.9959;
137.7000;0.9508;1.9911;
138.0000;0.9442;1.9716;
138.3000;0.9508;1.9911;
138.6000;0.9491;1.9862;
138.9000;0.9524;1.9862;
139.2000;0.9451;1.9571;
139.5000;0.9516;1.9716;
139.8000;0.9508;1.9692;
140.1000;0.9532;1.9814;
140.4000;0.9540;1.9935;
140.7000;0.9499;1.9862;
141.0000;0.9491;1.9886;
141.3000;0.9532;1.9886;
141.6000;0.9532;1.9935;
141.9000;0.9499;1.9886;
142.2000;0.9532;1.9959;
142.5000;0.9532;2.0032;
142.8000;0.9532;1.9959;
143.1000;0.9499;1.9765;
143.4000;0.9508;1.9692;
143.7000;0.9499;1.9716;
144.0000;0.9483;1.9741;
144.3000;0.9524;1.9741;
144.6000;0.9508;1.9789;
144.9000;0.9524;1.9886;
145.2000;0.9516;1.9911;
145.5000;0.9524;1.9984;
145.8000;0.9508;1.9959;
146.1000;0.9516;1.9838;
146.4000;0.9516;1.9862;
146.7000;0.9524;1.9886;
147.0000;0.9589;1.9984;
147.3000;0.9524;1.9886;
147.6000;0.9524;1.9886;
147.9000;0.9532;1.9838;
148.2000;0.9459;1.9741;
148.5000;0.9442;1.9765;
148.8000;0.9499;1.9911;
149.1000;0.9516;1.9959;
149.4000;0.9508;1.9911;
149.7000;0.9475;1.9789;
150.0000;0.9516;1.9862;
150.3000;0.9516;1.9862;
150.6000;0.9524;1.9911;
150.9000;0.9516;1.9862;
151.2000;0.9508;1.9765;
151.5000;0.9524;1.9765;
151.8000;0.9459;1.9595;
152.1000;0.9573;1.9814;
152.4000;0.9516;1.9765;
152.7000;0.9499;1.9716;
153.0000;0.9524;1.9789;
153.3000;0.9524;1.9862;
153.6000;0.9516;1.9765;
153.9000;0.9524;1.9716;
154.2000;0.9508;1.9716;
154.5000;0.9516;1.9716;
154.8000;0.9475;1.9668;
155.1000;0.9524;1.9814;
155.4000;0.9508;1.9862;
155.7000;0.9556;2.0032;
156.0000;0.9483;1.9838;
156.3000;0.9499;1.9959;
156.6000;0.9524;2.0032;
156.9000;0.9499;1.9935;
157.2000;0.9548;2.0008;
157.5000;0.9516;2.0032;
157.8000;0.9516;1.9935;
158.1000;0.9516;1.9911;
158.4000;0.9516;1.9886;
158.7000;0.9524;1.9862;
159.0000;0.9516;1.9935;
159.3000;0.9524;1.9911;
159.6000;0.9516;1.9935;
159.9000;0.9532;1.9959;
160.2000;0.9508;1.9935;
160.5000;0.9516;1.9935;
160.8000;0.9532;2.0032;
161.1000;0.9516;1.9959;
161.4000;0.9483;1.9838;
161.7000;0.9491;1.9814;
162.0000;0.9508;1.9838;
162.3000;0.9491;1.9789;
162.6000;0.9516;1.9886;
162.9000;0.9516;1.9911;
163.2000;0.9532;1.9911;
163.5000;0.9524;1.9838;
163.8000;0.9491;1.9716;
164.1000;0.9532;1.9838;
164.4000;0.9508;1.9838;
164.7000;0.9516;1.9886;
165.0000;0.9540;1.9984;
165.3000;0.9442;1.9814;
165.6000;0.9516;1.9959;
165.9000;0.9516;1.9935;
166.2000;0.9491;1.9765;
166.5000;0.9524;1.9814;
166.8000;0.9516;1.9911;
167.1000;0.9491;1.9886;
167.4000;0.9516;1.9984;
167.7000;0.9516;2.0008;
168.0000;0.9524;2.0008;
168.3000;0.9516;1.9959;
168.6000;0.9499;1.9959;
168.9000;0.9491;1.9935;
169.2000;0.9508;1.9886;
169.5000;0.9491;1.9814;
169.8000;0.9524;1.9886;
170.1000;0.9491;1.9814;
170.4000;0.9442;1.9716;
170.7000;0.9499;1.9886;
171.0000;0.9524;1.9911;
171.3000;0.9516;1.9959;
171.6000;0.9508;1.9984;
171.9000;0.9516;1.9935;
172.2000;0.9491;1.9886;
172.5000;0.9499;1.9935;
172.8000;0.9508;1.9959;
173.1000;0.9491;1.9935;
173.4000;0.9532;2.0032;
173.7000;0.9516;2.0008;
174.0000;0.9499;1.9935;
174.3000;0.9508;2.0008;
174.6000;0.9524;2.0008;
174.9000;0.9524;2.0008;
175.2000;0.9491;1.9935;
175.5000;0.9491;1.9911;
175.8000;0.9516;1.9935;
176.1000;0.9508;1.9886;
176.4000;0.9499;1.9789;
176.7000;0.9532;1.9838;
177.0000;0.9508;1.9716;
177.3000;0.9475;1.9668;
177.6000;0.9508;1.9741;
177.9000;0.9508;1.9741;
178.2000;0.9508;1.9692;
178.5000;0.9491;1.9741;
178.8000;0.9516;1.9814;
179.1000;0.9491;1.9765;
179.4000;0.9483;1.9789;
179.7000;0.9516;1.9838;
180.0000;0.9508;1.9838;
180.3000;0.9491;1.9862;
180.6000;0.9499;1.9838;
180.9000;0.9508;1.9911;
181.2000;0.9540;2.0032;
181.5000;0.9516;1.9984;
181.8000;0.9508;1.9984;
182.1000;0.9540;2.0105;
182.4000;0.9532;2.0105;
182.7000;0.9516;1.9984;
183.0000;0.9508;1.9959;
183.3000;0.9540;2.0008;
183.6000;0.9516;1.9862;
183.9000;0.9516;1.9789;
184.2000;0.9508;1.9814;
184.5000;0.9524;1.9789;
184.8000;0.9524;1.9789;
185.1000;0.9483;1.9692;
185.4000;0.9475;1.9644;
185.7000;0.9508;1.9692;
186.0000;0.9499;1.9668;
186.3000;0.9491;1.9644;
186.6000;0.9516;1.9668;
186.9000;0.9499;1.9571;
187.2000;0.9499;1.9546;
187.5000;0.9459;1.9522;
187.8000;0.9508;1.9595;
188.1000;0.9516;1.9522;
188.4000;0.9491;1.9522;
188.7000;0.9499;1.9595;
189.0000;0.9499;1.9644;
189.3000;0.9491;1.9644;
189.6000;0.9508;1.9668;
189.9000;0.9516;1.9595;
190.2000;0.9565;1.9692;
190.5000;0.9499;1.9644;
190.8000;0.9475;1.9595;
191.1000;0.9475;1.9668;
191.4000;0.9516;1.9765;
191.7000;0.9516;1.9814;
192.0000;0.9491;1.9765;
192.3000;0.9508;1.9959;
192.6000;0.9491;1.9959;
192.9000;0.9516;1.9935;
193.2000;0.9516;1.9862;
193.5000;0.9451;1.9765;
193.8000;0.9524;1.9959;
194.1000;0.9516;2.0008;
194.4000;0.9426;1.9838;
194.7000;0.9516;1.9984;
195.0000;0.9540;2.0056;
195.3000;0.9524;1.9959;
195.6000;0.9508;1.9959;
195.9000;0.9491;1.9959;
196.2000;0.9491;1.9911;
196.5000;0.9548;1.9984;
196.8000;0.9540;1.9935;
197.1000;0.9459;1.9814;
197.4000;0.9540;2.0032;
197.7000;0.9499;1.9984;
198.0000;0.9548;2.0056;
198.3000;0.9516;1.9984;
198.6000;0.9524;2.0056;
198.9000;0.9508;1.9984;
199.2000;0.9516;2.0081;
199.5000;0.9508;2.0032;
199.8000;0.9459;1.9935;
200.1000;0.9540;2.0154;
200.4000;0.9499;2.0129;
200.7000;0.9499;2.0105;
201.0000;0.9483;2.0081;
201.3000;0.9499;2.0105;
201.6000;0.9499;1.9984;
201.9000;0.9548;2.0081;
202.2000;0.9499;1.9984;
202.5000;0.9499;1.9959;
202.8000;0.9508;2.0008;
203.1000;0.9516;1.9862;
203.4000;0.9483;1.9789;
203.7000;0.9491;1.9814;
204.0000;0.9508;1.9886;
204.3000;0.9499;1.9911;
204.6000;0.9499;1.9959;
204.9000;0.9516;1.9959;
205.2000;0.9499;1.9984;
205.5000;0.9508;1.9959;
205.8000;0.9516;1.9984;
206.1000;0.9499;1.9959;
206.4000;0.9483;2.0032;
206.7000;0.9499;2.0081;
207.0000;0.9524;2.0154;
207.3000;0.9508;2.0178;
207.6000;0.9483;2.0081;
207.9000;0.9508;2.0032;
208.2000;0.9508;2.0008;
208.5000;0.9516;2.0056;
208.8000;0.9508;1.9984;
209.1000;0.9508;1.9959;
209.4000;0.9516;1.9984;
209.7000;0.9524;1.9984;
210.0000;0.9491;1.9984;
210.3000;0.9508;2.0056;
210.6000;0.9589;2.0299;
210.9000;0.9508;2.0032;
211.2000;0.9499;2.0008;
211.5000;0.9508;2.0056;
211.8000;0.9516;1.9935;
212.1000;0.9516;1.9862;
212.4000;0.9508;1.9838;
212.7000;0.9434;1.9716;
213.0000;0.9508;1.9838;
213.3000;0.9483;1.9814;
213.6000;0.9491;1.9862;
213.9000;0.9442;1.9838;
214.2000;0.9516;1.9935;
214.5000;0.9508;2.0032;
214.8000;0.9483;1.9935;
215.1000;0.9491;1.9886;
215.4000;0.9491;1.9911;
215.7000;0.9508;1.9911;
216.0000;0.9491;1.9814;
216.3000;0.9508;1.9886;
216.6000;0.9491;1.9814;
216.9000;0.9516;1.9862;
217.2000;0.9483;1.9862;
217.5000;0.9508;1.9838;
217.8000;0.9508;1.9838;
218.1000;0.9491;1.9765;
218.4000;0.9491;1.9741;
218.7000;0.9499;1.9716;
219.0000;0.9508;1.9789;
219.3000;0.9483;1.9741;
219.6000;0.9499;1.9741;
219.9000;0.9491;1.9765;
220.2000;0.9499;1.9789;
220.5000;0.9491;1.9692;
220.8000;0.9508;1.9765;
221.1000;0.9499;1.9741;
221.4000;0.9499;1.9692;
221.7000;0.9499;1.9619;
222.0000;0.9508;1.9619;
222.3000;0.9516;1.9644;
222.6000;0.9499;1.9644;
222.9000;0.9467;1.9644;
223.2000;0.9475;1.9765;
223.5000;0.9516;1.9935;
223.8000;0.9516;1.9959;
224.1000;0.9499;1.9886;
224.4000;0.9499;1.9838;
224.7000;0.9491;1.9911;
225.0000;0.9491;1.9959;
225.3000;0.9491;1.9935;
225.6000;0.9491;2.0032;
225.9000;0.9491;2.0081;
226.2000;0.9524;2.0154;
226.5000;0.9508;2.0032;
226.8000;0.9491;1.9984;
227.1000;0.9499;1.9935;
227.4000;0.9516;1.9911;
227.7000;0.9508;1.9862;
228.0000;0.9491;1.9838;
228.3000;0.9524;2.0008;
228.6000;0.9524;1.9959;
228.9000;0.9508;1.9935;
229.2000;0.9499;1.9984;
229.5000;0.9491;2.0032;
229.8000;0.9499;2.0129;
230.1000;0.9516;2.0105;
230.4000;0.9499;2.0032;
230.7000;0.9491;2.0056;
231.0000;0.9499;2.0105;
231.3000;0.9491;2.0081;
231.6000;0.9499;2.0105;
231.9000;0.9483;2.0154;
232.2000;0.9483;2.0129;
232.5000;0.9451;2.0129;
232.8000;0.9491;2.0202;
233.1000;0.9483;2.0251;
233.4000;0.9508;2.0323;
233.7000;0.9499;2.0251;
234.0000;0.9491;2.0178;
234.3000;0.9483;2.0105;
234.6000;0.9524;2.0056;
234.9000;0.9491;1.9886;
235.2000;0.9491;1.9862;
235.5000;0.9499;1.9838;
235.8000;0.9467;1.9814;
236.1000;0.9499;1.9862;
236.4000;0.9499;1.9911;
236.7000;0.9459;1.9814;
237.0000;0.9491;1.9935;
237.3000;0.9483;2.0008;
237.6000;0.9508;2.0056;
237.9000;0.9459;1.9814;
238.2000;0.9499;1.9935;
238.5000;0.9499;1.9984;
238.8000;0.9491;1.9984;
239.1000;0.9467;1.9886;
239.4000;0.9540;1.9984;
239.7000;0.9499;1.9959;
240.0000;0.9508;1.9886;
240.3000;0.9524;1.9984;
240.6000;0.9499;1.9862;
240.9000;0.9548;1.9959;
241.2000;0.9516;1.9959;
241.5000;0.9475;1.9886;
241.8000;0.9491;1.9959;
242.1000;0.9499;1.9935;
242.4000;0.9508;1.9959;
242.7000;0.9499;1.9911;
243.0000;0.9516;1.9911;
243.3000;0.9483;1.9814;
243.6000;0.9491;1.9789;
243.9000;0.9483;1.9789;
244.2000;0.9508;1.9838;
244.5000;0.9491;1.9838;
244.8000;0.9483;1.9789;
245.1000;0.9508;1.9886;
245.4000;0.9483;1.9862;
245.7000;0.9459;1.9838;
246.0000;0.9499;1.9911;
246.3000;0.9499;1.9838;
246.6000;0.9516;1.9838;
246.9000;0.9491;1.9789;
247.2000;0.9491;1.9789;
247.5000;0.9483;1.9862;
247.8000;0.9516;2.0032;
248.1000;0.9508;2.0032;
248.4000;0.9491;2.0008;
248.7000;0.9459;1.9935;
249.0000;0.9491;1.9984;
249.3000;0.9491;1.9886;
249.6000;0.9499;1.9862;
249.9000;0.9483;1.9741;
250.2000;0.9475;1.9716;
250.5000;0.9508;1.9838;
250.8000;0.9508;1.9789;
251.1000;0.9491;1.9814;
251.4000;0.9508;1.9862;
251.7000;0.9508;1.9886;
252.0000;0.9475;1.9935;
252.3000;0.9491;2.0032;
252.6000;0.9508;2.0105;
252.9000;0.9508;2.0081;
253.2000;0.9499;2.0105;
253.5000;0.9491;2.0105;
253.8000;0.9483;2.0056;
254.1000;0.9499;2.0129;
254.4000;0.9491;2.0081;
254.7000;0.9483;1.9886;
255.0000;0.9491;1.9886;
255.3000;0.9491;1.9886;
255.6000;0.9508;1.9911;
255.9000;0.9508;1.9814;
256.2000;0.9508;1.9789;
256.5000;0.9516;1.9911;
256.8000;0.9499;1.9838;
257.1000;0.9459;1.9668;
257.4000;0.9434;1.9668;
257.7000;0.9483;1.9814;
258.0000;0.9524;2.0032;
258.3000;0.9499;2.0032;
258.6000;0.9451;1.9935;
258.9000;0.9467;2.0008;
259.2000;0.9491;2.0032;
259.5000;0.9483;2.0008;
259.8000;0.9491;2.0032;
260.1000;0.9483;1.9984;
260.4000;0.9483;2.0008;
260.7000;0.9442;1.9911;
261.0000;0.9499;1.9959;
261.3000;0.9499;1.9984;
261.6000;0.9451;1.9862;
261.9000;0.9499;2.0056;
262.2000;0.9491;2.0129;
262.5000;0.9491;1.9984;
262.8000;0.9475;1.9935;
263.1000;0.9442;1.9789;
263.4000;0.9491;1.9789;
263.7000;0.9418;1.9571;
264.0000;0.9491;1.9716;
264.3000;0.9499;1.9741;
264.6000;0.9483;1.9692;
264.9000;0.9508;1.9741;
265.2000;0.9451;1.9716;
265.5000;0.9491;1.9984;
265.8000;0.9532;2.0081;
266.1000;0.9483;1.9886;
266.4000;0.9548;1.9984;
266.7000;0.9499;1.9911;
267.0000;0.9451;1.9862;
267.3000;0.9508;1.9935;
267.6000;0.9475;1.9789;
267.9000;0.9442;1.9644;
268.2000;0.9499;1.9765;
268.5000;0.9483;1.9814;
268.8000;0.9548;1.9984;
269.1000;0.9524;2.0008;
269.4000;0.9499;1.9959;
269.7000;0.9483;1.9959;
270.0000;0.9491;1.9984;
270.3000;0.9483;1.9984;
270.6000;0.9426;1.9862;
270.9000;0.9475;1.9959;
271.2000;0.9475;1.9935;
271.5000;0.9483;1.9959;
271.8000;0.9442;1.9814;
272.1000;0.9516;1.9959;
272.4000;0.9491;1.9959;
272.7000;0.9475;1.9886;
273.0000;0.9467;1.9789;
273.3000;0.9483;1.9814;
273.6000;0.9491;1.9862;
273.9000;0.9491;1.9886;
274.2000;0.9508;1.9935;
274.5000;0.9508;2.0032;
274.8000;0.9508;2.0032;
275.1000;0.9499;1.9984;
275.4000;0.9491;1.9959;
275.7000;0.9491;1.9984;
276.0000;0.9491;1.9984;
276.3000;0.9540;2.0032;
276.6000;0.9499;2.0008;
276.9000;0.9491;1.9959;
277.2000;0.9532;2.0081;
277.5000;0.9491;1.9959;
277.8000;0.9499;1.9959;
278.1000;0.9499;1.9959;
278.4000;0.9483;1.9984;
278.7000;0.9483;1.9959;
279.0000;0.9475;1.9935;
279.3000;0.9459;1.9862;
279.6000;0.9499;1.9911;
279.9000;0.9475;1.9838;
280.2000;0.9491;1.9886;
280.5000;0.9491;1.9886;
280.8000;0.9475;1.9886;
281.1000;0.9556;2.0105;
281.4000;0.9491;1.9984;
281.7000;0.9467;1.9838;
282.0000;0.9467;1.9765;
282.3000;0.9434;1.9668;
282.6000;0.9499;1.9789;
282.9000;0.9483;1.9716;
283.2000;0.9410;1.9595;
283.5000;0.9475;1.9789;
283.8000;0.9516;1.9935;
284.1000;0.9589;2.0178;
284.4000;0.9499;1.9789;
284.7000;0.9524;1.9959;
285.0000;0.9508;1.9935;
285.3000;0.9499;1.9911;
285.6000;0.9426;1.9765;
285.9000;0.9516;1.9984;
286.2000;0.9442;1.9886;
286.5000;0.9483;2.0081;
286.8000;0.9459;1.9935;
287.1000;0.9475;2.0032;
287.4000;0.9459;1.9935;
287.7000;0.9532;2.0105;
288.0000;0.9459;1.9959;
288.3000;0.9491;2.0008;
288.6000;0.9475;2.0032;
288.9000;0.9556;2.0154;
289.2000;0.9483;2.0056;
289.5000;0.9491;2.0032;
289.8000;0.9475;1.9959;
290.1000;0.9491;1.9984;
290.4000;0.9483;1.9959;
290.7000;0.9483;1.9959;
291.0000;0.9483;1.9984;
291.3000;0.9508;2.0056;
291.6000;0.9475;2.0032;
291.9000;0.9540;2.0105;
292.2000;0.9499;2.0032;
292.5000;0.9499;2.0032;
292.8000;0.9508;2.0032;
293.1000;0.9491;2.0056;
293.4000;0.9483;2.0008;
293.7000;0.9508;1.9984;
294.0000;0.9491;1.9984;
294.3000;0.9483;2.0008;
294.6000;0.9491;1.9984;
294.9000;0.9491;1.9984;
295.2000;0.9491;1.9911;
295.5000;0.9499;1.9886;
295.8000;0.9556;1.9959;
296.1000;0.9491;1.9862;
296.4000;0.9483;1.9814;
296.7000;0.9483;1.9814;
297.0000;0.9483;1.9814;
297.3000;0.9475;1.9886;
297.6000;0.9491;1.9935;
297.9000;0.9508;1.9911;
298.2000;0.9581;2.0154;
298.5000;0.9499;2.0032;
298.8000;0.9483;1.9984;
299.1000;0.9508;2.0008;
299.4000;0.9540;2.0056;
299.7000;0.9475;1.9984;
300.0000;0.9499;2.0105;
300.3000;0.9483;1.9984;
300.6000;0.9499;2.0008;
300.9000;0.9475;1.9862;
301.2000;0.9475;1.9765;
301.5000;0.9483;1.9838;
301.8000;0.9491;1.9814;
302.1000;0.9499;1.9814;
302.4000;0.9459;1.9838;
302.7000;0.9491;1.9959;
303.0000;0.9491;2.0056;
303.3000;0.9459;2.0008;
303.6000;0.9483;2.0105;
303.9000;0.9483;2.0008;
304.2000;0.9508;2.0105;
304.5000;0.9491;1.9959;
304.8000;0.9475;1.9959;
305.1000;0.9532;2.0154;
305.4000;0.9491;2.0081;
305.7000;0.9491;2.0105;
306.0000;0.9508;2.0081;
306.3000;0.9402;1.9838;
306.6000;0.9573;2.0226;
306.9000;0.9491;2.0056;
307.2000;0.9459;1.9959;
307.5000;0.9475;1.9911;
307.8000;0.9475;1.9911;
308.1000;0.9491;1.9984;
308.4000;0.9491;2.0032;
308.7000;0.9483;2.0081;
309.0000;0.9499;2.0056;
309.3000;0.9434;2.0008;
309.6000;0.9483;2.0081;
309.9000;0.9475;2.0154;
310.2000;0.9475;2.0154;
310.5000;0.9508;2.0129;
310.8000;0.9491;2.0032;
311.1000;0.9573;2.0178;
311.4000;0.9451;1.9886;
311.7000;0.9499;1.9959;
312.0000;0.9475;1.9838;
312.3000;0.9442;1.9644;
312.6000;0.9483;1.9765;
312.9000;0.9491;1.9838;
313.2000;0.9483;1.9814;
313.5000;0.9418;1.9716;
313.8000;0.9491;1.9838;
314.1000;0.9491;1.9838;
314.4000;0.9483;1.9838;
314.7000;0.9499;1.9838;
315.0000;0.9508;1.9886;
315.3000;0.9508;1.9935;
315.6000;0.9491;1.9959;
315.9000;0.9491;1.9984;
316.2000;0.9483;2.0008;
316.5000;0.9459;2.0008;
316.8000;0.9475;2.0008;
317.1000;0.9483;2.0081;
317.4000;0.9467;2.0081;
317.7000;0.9467;2.0056;
318.0000;0.9475;2.0032;
318.3000;0.9475;1.9911;
318.6000;0.9475;1.9886;
318.9000;0.9475;1.9935;
319.2000;0.9483;1.9862;
319.5000;0.9483;1.9886;
319.8000;0.9491;1.9984;
320.1000;0.9475;1.9911;
320.4000;0.9459;1.9862;
320.7000;0.9499;1.9935;
321.0000;0.9475;1.9911;
321.3000;0.9483;1.9984;
321.6000;0.9475;2.0056;
321.9000;0.9442;2.0008;
322.2000;0.9508;2.0129;
322.5000;0.9475;1.9935;
322.8000;0.9467;1.9935;
323.1000;0.9442;1.9862;
323.4000;0.9491;2.0008;
323.7000;0.9516;1.9959;
324.0000;0.9475;1.9814;
324.3000;0.9499;1.9814;
324.6000;0.9499;1.9911;
324.9000;0.9483;1.9886;
325.2000;0.9483;1.9838;
325.5000;0.9475;1.9789;
325.8000;0.9483;1.9789;
326.1000;0.9459;1.9765;
326.4000;0.9475;1.9911;
326.7000;0.9451;1.9911;
327.0000;0.9475;2.0008;
327.3000;0.9508;2.0056;
327.6000;0.9516;2.0056;
327.9000;0.9475;1.9984;
328.2000;0.9467;1.9935;
328.5000;0.9508;2.0056;
328.8000;0.9467;1.9935;
329.1000;0.9467;1.9935;
329.4000;0.9467;1.9886;
329.7000;0.9491;1.9935;
330.0000;0.9491;1.9959;
330.3000;0.9499;1.9935;
330.6000;0.9516;2.0008;
330.9000;0.9475;1.9862;
331.2000;0.9524;1.9911;
331.5000;0.9483;1.9862;
331.8000;0.9516;1.9935;
332.1000;0.9475;1.9911;
332.4000;0.9467;1.9862;
332.7000;0.9475;1.9789;
333.0000;0.9459;1.9789;
333.3000;0.9475;1.9789;
333.6000;0.9475;1.9741;
333.9000;0.9491;1.9765;
334.2000;0.9483;1.9765;
334.5000;0.9475;1.9765;
334.8000;0.9548;1.9984;
335.1000;0.9483;1.9862;
335.4000;0.9467;1.9741;
335.7000;0.9475;1.9789;
336.0000;0.9499;1.9862;
336.3000;0.9459;1.9838;
336.6000;0.9491;1.9935;
336.9000;0.9483;1.9838;
337.2000;0.9467;1.9789;
337.5000;0.9483;1.9765;
337.8000;0.9483;1.9765;
338.1000;0.9467;1.9692;
338.4000;0.9459;1.9741;
338.7000;0.9483;1.9765;
339.0000;0.9483;1.9789;
339.3000;0.9499;1.9862;
339.6000;0.9491;1.9886;
339.9000;0.9483;1.9838;
340.2000;0.9508;1.9862;
340.5000;0.9499;1.9838;
340.8000;0.9475;1.9741;
341.1000;0.9499;1.9838;
341.4000;0.9508;1.9886;
341.7000;0.9475;1.9814;
342.0000;0.9483;1.9789;
342.3000;0.9483;1.9862;
342.6000;0.9475;1.9862;
342.9000;0.9467;1.9838;
343.2000;0.9459;1.9862;
343.5000;0.9475;1.9911;
343.8000;0.9467;1.9935;
344.1000;0.9491;1.9984;
344.4000;0.9491;2.0008;
344.7000;0.9475;1.9814;
345.0000;0.9508;1.9959;
345.3000;0.9499;2.0008;
345.6000;0.9483;1.9935;
345.9000;0.9491;1.9959;
346.2000;0.9499;1.9959;
346.5000;0.9475;1.9886;
346.8000;0.9491;1.9886;
347.1000;0.9491;1.9886;
347.4000;0.9491;1.9886;
347.7000;0.9475;1.9838;
348.0000;0.9491;1.9959;
348.3000;0.9491;1.9911;
348.6000;0.9467;1.9911;
348.9000;0.9483;1.9984;
349.2000;0.9483;1.9959;
349.5000;0.9540;2.0056;
349.8000;0.9491;2.0032;
350.1000;0.9483;2.0056;
350.4000;0.9499;2.0081;
350.7000;0.9491;2.0032;
351.0000;0.9475;1.9911;
351.3000;0.9459;1.9814;
351.6000;0.9475;1.9789;
351.9000;0.9475;1.9741;
352.2000;0.9475;1.9741;
352.5000;0.9483;1.9814;
352.8000;0.9467;1.9838;
353.1000;0.9475;1.9862;
353.4000;0.9467;1.9814;
353.7000;0.9442;1.9789;
354.0000;0.9475;1.9886;
354.3000;0.9475;1.9886;
354.6000;0.9483;1.9886;
354.9000;0.9467;1.9789;
355.2000;0.9491;1.9838;
355.5000;0.9499;1.9959;
355.8000;0.9483;1.9838;
356.1000;0.9459;1.9789;
356.4000;0.9499;1.9911;
356.7000;0.9475;1.9838;
357.0000;0.9475;1.9838;
357.3000;0.9459;1.9789;
357.6000;0.9508;1.9765;
357.9000;0.9467;1.9692;
358.2000;0.9491;1.9716;
358.5000;0.9483;1.9692;
358.8000;0.9459;1.9692;
359.1000;0.9467;1.9692;
359.4000;0.9499;1.9814;
359.7000;0.9475;1.9741;
360.0000;0.9459;1.9741;
360.3000;0.9483;1.9814;
360.6000;0.9483;1.9838;
360.9000;0.9483;1.9886;
361.2000;0.9467;1.9838;
361.5000;0.9459;1.9765;
361.8000;0.9524;1.9959;
362.1000;0.9483;1.9789;
362.4000;0.9467;1.9692;
362.7000;0.9475;1.9716;
363.0000;0.9475;1.9838;
363.3000;0.9483;1.9911;
363.6000;0.9475;1.9935;
363.9000;0.9491;2.0008;
364.2000;0.9475;1.9911;
364.5000;0.9483;2.0081;
364.8000;0.9491;2.0081;
365.1000;0.9475;1.9959;
365.4000;0.9491;1.9862;
365.7000;0.9532;2.0008;
366.0000;0.9483;1.9886;
366.3000;0.9483;1.9886;
366.6000;0.9475;1.9984;
366.9000;0.9483;1.9911;
367.2000;0.9499;2.0008;
367.5000;0.9475;1.9959;
367.8000;0.9475;2.0032;
368.1000;0.9483;2.0056;
368.4000;0.9483;2.0008;
368.7000;0.9467;1.9935;
369.0000;0.9483;1.9935;
369.3000;0.9483;1.9959;
369.6000;0.9491;1.9959;
369.9000;0.9475;1.9886;
370.2000;0.9475;1.9886;
370.5000;0.9483;2.0032;
370.8000;0.9483;2.0008;
371.1000;0.9491;2.0032;
371.4000;0.9467;1.9935;
371.7000;0.9475;1.9984;
372.0000;0.9499;1.9984;
372.3000;0.9483;1.9911;
372.6000;0.9459;1.9838;
372.9000;0.9467;1.9935;
373.2000;0.9475;1.9862;
373.5000;0.9467;1.9862;
373.8000;0.9475;1.9838;
374.1000;0.9467;1.9838;
374.4000;0.9467;1.9911;
374.7000;0.9467;1.9984;
375.0000;0.9483;2.0008;
375.3000;0.9475;2.0032;
375.6000;0.9459;2.0008;
375.9000;0.9434;2.0008;
376.2000;0.9483;2.0178;
376.5000;0.9377;1.9959;
376.8000;0.9483;2.0129;
377.1000;0.9475;2.0081;
377.4000;0.9491;2.0105;
377.7000;0.9426;1.9886;
378.0000;0.9467;2.0032;
378.3000;0.9508;2.0105;
378.6000;0.9475;1.9984;
378.9000;0.9451;1.9935;
379.2000;0.9467;2.0008;
379.5000;0.9475;1.9959;
379.8000;0.9475;1.9959;
380.1000;0.9491;2.0008;
380.4000;0.9434;1.9765;
380.7000;0.9491;1.9959;
381.0000;0.9467;1.9935;
381.3000;0.9548;2.0226;
381.6000;0.9467;2.0008;
381.9000;0.9459;1.9911;
382.2000;0.9483;1.9935;
382.5000;0.9508;1.9959;
382.8000;0.9402;1.9765;
383.1000;0.9434;1.9862;
383.4000;0.9532;2.0056;
383.7000;0.9459;1.9959;
384.0000;0.9410;1.9814;
384.3000;0.9475;1.9886;
384.6000;0.9475;1.9789;
384.9000;0.9491;1.9862;
385.2000;0.9475;1.9814;
385.5000;0.9467;1.9862;
385.8000;0.9459;1.9838;
386.1000;0.9467;1.9838;
386.4000;0.9475;1.9789;
386.7000;0.9467;1.9789;
387.0000;0.9459;1.9789;
387.3000;0.9475;1.9838;
387.6000;0.9475;1.9838;
387.9000;0.9475;1.9838;
388.2000;0.9508;1.9984;
388.5000;0.9467;1.9911;
388.8000;0.9483;2.0032;
389.1000;0.9532;2.0154;
389.4000;0.9459;1.9984;
389.7000;0.9467;1.9984;
390.0000;0.9475;1.9984;
390.3000;0.9467;1.9935;
390.6000;0.9475;1.9886;
390.9000;0.9483;1.9886;
391.2000;0.9459;1.9814;
391.5000;0.9475;1.9765;
391.8000;0.9475;1.9765;
392.1000;0.9385;1.9595;
392.4000;0.9467;1.9741;
392.7000;0.9475;1.9814;
393.0000;0.9434;1.9741;
393.3000;0.9483;1.9789;
393.6000;0.9475;1.9886;
393.9000;0.9508;1.9984;
394.2000;0.9475;2.0008;
394.5000;0.9467;2.0081;
394.8000;0.9475;2.0008;
395.1000;0.9475;2.0008;
395.4000;0.9483;2.0008;
395.7000;0.9475;1.9959;
396.0000;0.9434;1.9862;
396.3000;0.9491;1.9959;
396.6000;0.9467;1.9935;
396.9000;0.9459;1.9862;
397.2000;0.9483;1.9814;
397.5000;0.9483;1.9789;
397.8000;0.9475;1.9862;
398.1000;0.9467;1.9886;
398.4000;0.9475;1.9935;
398.7000;0.9467;1.9911;
399.0000;0.9467;1.9886;
399.3000;0.9410;1.9814;
399.6000;0.9467;1.9911;
399.9000;0.9467;1.9911;
400.2000;0.9475;1.9984;
400.5000;0.9475;1.9959;
400.8000;0.9410;1.9911;
401.1000;0.9565;2.0299;
401.4000;0.9459;2.0056;
401.7000;0.9459;2.0081;
402.0000;0.9459;2.0056;
402.3000;0.9483;2.0081;
402.6000;0.9459;2.0008;
402.9000;0.9434;1.9935;
403.2000;0.9467;2.0056;
403.5000;0.9483;2.0056;
403.8000;0.9442;1.9935;
404.1000;0.9491;2.0056;
404.4000;0.9524;2.0081;
404.7000;0.9475;1.9789;
405.0000;0.9467;1.9716;
405.3000;0.9491;1.9789;
405.6000;0.9483;1.9716;
405.9000;0.9402;1.9546;
406.2000;0.9475;1.9741;
406.5000;0.9467;1.9716;
406.8000;0.9483;1.9838;
407.1000;0.9499;1.9935;
407.4000;0.9459;1.9838;
407.7000;0.9475;1.9814;
408.0000;0.9467;1.9862;
408.3000;0.9467;1.9935;
408.6000;0.9459;2.0032;
408.9000;0.9467;2.0056;
409.2000;0.9475;2.0032;
409.5000;0.9475;2.0105;
409.8000;0.9491;2.0081;
410.1000;0.9459;1.9862;
410.4000;0.9467;1.9838;
410.7000;0.9475;1.9814;
411.0000;0.9451;1.9789;
411.3000;0.9467;1.9814;
411.6000;0.9467;1.9862;
411.9000;0.9467;1.9959;
412.2000;0.9467;1.9984;
412.5000;0.9467;1.9959;
412.8000;0.9467;1.9959;
413.1000;0.9483;1.9984;
413.4000;0.9467;2.0008;
413.7000;0.9483;1.9984;
414.0000;0.9483;2.0032;
414.3000;0.9499;2.0056;
414.6000;0.9491;2.0081;
414.9000;0.9483;2.0032;
415.2000;0.9442;2.0008;
415.5000;0.9467;2.0056;
415.8000;0.9491;2.0081;
416.1000;0.9459;1.9935;
416.4000;0.9475;1.9935;
416.7000;0.9483;2.0008;
417.0000;0.9491;2.0081;
417.3000;0.9516;2.0105;
417.6000;0.9475;1.9935;
417.9000;0.9467;1.9911;
418.2000;0.9475;1.9911;
418.5000;0.9483;1.9984;
418.8000;0.9483;2.0008;
419.1000;0.9483;2.0032;
419.4000;0.9491;2.0056;
419.7000;0.9459;1.9959;
420.0000;0.9475;1.9886;
420.3000;0.9451;1.9862;
420.6000;0.9418;1.9765;
420.9000;0.9459;1.9911;
421.2000;0.9459;1.9935;
421.5000;0.9467;1.9959;
421.8000;0.9475;1.9984;
422.1000;0.9483;2.0056;
422.4000;0.9467;1.9959;
422.7000;0.9499;2.0056;
423.0000;0.9451;1.9911;
423.3000;0.9467;1.9984;
423.6000;0.9573;2.0226;
423.9000;0.9499;1.9959;
424.2000;0.9459;1.9814;
424.5000;0.9565;2.0154;
424.8000;0.9483;1.9886;
425.1000;0.9467;1.9886;
425.4000;0.9434;1.9862;
425.7000;0.9467;1.9935;
426.0000;0.9459;1.9911;
426.3000;0.9475;1.9935;
426.6000;0.9467;1.9984;
426.9000;0.9459;1.9959;
427.2000;0.9467;2.0032;
427.5000;0.9426;2.0008;
427.8000;0.9499;2.0178;
428.1000;0.9459;2.0056;
428.4000;0.9540;2.0154;
428.7000;0.9491;1.9935;
429.0000;0.9475;1.9862;
429.3000;0.9467;1.9814;
429.6000;0.9467;1.9814;
429.9000;0.9467;1.9814;
430.2000;0.9475;1.9862;
430.5000;0.9491;1.9862;
430.8000;0.9459;1.9862;
431.1000;0.9483;1.9814;
431.4000;0.9459;1.9716;
431.7000;0.9451;1.9741;
432.0000;0.9459;1.9814;
432.3000;0.9451;1.9789;
432.6000;0.9467;1.9789;
432.9000;0.9459;1.9814;
433.2000;0.9451;1.9789;
433.5000;0.9475;1.9911;
433.8000;0.9475;1.9959;
434.1000;0.9475;1.9959;
434.4000;0.9483;1.9911;
434.7000;0.9459;1.9838;
435.0000;0.9475;1.9886;
435.3000;0.9459;1.9814;
435.6000;0.9475;1.9862;
435.9000;0.9483;1.9862;
436.2000;0.9475;1.9886;
436.5000;0.9483;1.9886;
436.8000;0.9467;1.9886;
437.1000;0.9459;1.9886;
437.4000;0.9459;1.9692;
437.7000;0.9508;1.9862;
438.0000;0.9459;1.9862;
438.3000;0.9467;1.9935;
438.6000;0.9434;1.9886;
438.9000;0.9467;1.9911;
439.2000;0.9467;1.9814;
439.5000;0.9483;1.9886;
439.8000;0.9451;1.9814;
440.1000;0.9459;1.9862;
440.4000;0.9467;1.9911;
440.7000;0.9451;1.9935;
441.0000;0.9467;1.9959;
441.3000;0.9442;1.9911;
441.6000;0.9451;1.9959;
441.9000;0.9475;1.9935;
442.2000;0.9467;1.9984;
442.5000;0.9434;1.9814;
442.8000;0.9451;1.9886;
443.1000;0.9369;1.9741;
443.4000;0.9556;2.0129;
443.7000;0.9410;1.9862;
444.0000;0.9467;1.9935;
444.3000;0.9467;1.9959;
444.6000;0.9499;2.0032;
444.9000;0.9459;1.9911;
445.2000;0.9508;2.0154;
445.5000;0.9442;2.0032;
445.8000;0.9516;2.0129;
446.1000;0.9451;1.9935;
446.4000;0.9508;2.0056;
446.7000;0.9442;1.9862;
447.0000;0.9459;1.9886;
447.3000;0.9467;1.9862;
447.6000;0.9459;2.0008;
447.9000;0.9467;2.0081;
448.2000;0.9459;1.9984;
448.5000;0.9451;1.9984;
448.8000;0.9451;2.0032;
449.1000;0.9467;2.0056;
449.4000;0.9459;2.0008;
449.7000;0.9459;2.0056;
450.0000;0.9451;2.0032;
450.3000;0.9451;2.0056;
450.6000;0.9491;2.0129;
450.9000;0.9434;2.0056;
451.2000;0.9459;2.0202;
451.5000;0.9434;2.0032;
451.8000;0.9475;2.0129;
452.1000;0.9459;2.0008;
452.4000;0.9475;1.9935;
452.7000;0.9467;1.9935;
453.0000;0.9467;1.9959;
453.3000;0.9434;1.9814;
453.6000;0.9451;1.9911;
453.9000;0.9377;1.9668;
454.2000;0.9451;1.9911;
454.5000;0.9516;2.0081;
454.8000;0.9467;2.0008;
455.1000;0.9499;2.0154;
455.4000;0.9475;1.9984;
455.7000;0.9483;1.9984;
456.0000;0.9475;1.9862;
456.3000;0.9467;1.9862;
456.6000;0.9483;2.0008;
456.9000;0.9451;1.9984;
457.2000;0.9459;1.9935;
457.5000;0.9475;1.9935;
457.8000;0.9467;1.9984;
458.1000;0.9475;2.0032;
458.4000;0.9475;2.0032;
458.7000;0.9426;1.9862;
459.0000;0.9451;1.9838;
459.3000;0.9467;1.9862;
459.6000;0.9499;1.9935;
459.9000;0.9459;1.9886;
460.2000;0.9442;1.9886;
460.5000;0.9451;1.9959;
460.8000;0.9499;2.0056;
461.1000;0.9459;2.0081;
461.4000;0.9467;2.0008;
461.7000;0.9459;1.9911;
462.0000;0.9467;1.9838;
462.3000;0.9451;1.9789;
462.6000;0.9451;1.9838;
462.9000;0.9467;1.9814;
463.2000;0.9524;1.9935;
463.5000;0.9467;1.9862;
463.8000;0.9475;1.9886;
464.1000;0.9475;1.9886;
464.4000;0.9459;1.9935;
464.7000;0.9459;1.9911;
465.0000;0.9467;1.9838;
465.3000;0.9499;1.9911;
465.6000;0.9459;1.9886;
465.9000;0.9467;1.9862;
466.2000;0.9475;1.9886;
466.5000;0.9475;1.9862;
466.8000;0.9467;1.9814;
467.1000;0.9467;1.9789;
467.4000;0.9467;1.9862;
467.7000;0.9467;1.9838;
468.0000;0.9467;1.9862;
468.3000;0.9402;1.9814;
468.6000;0.9516;2.0105;
468.9000;0.9451;1.9959;
469.2000;0.9451;1.9959;
469.5000;0.9451;2.0056;
469.8000;0.9442;1.9911;
470.1000;0.9442;1.9862;
470.4000;0.9467;1.9886;
470.7000;0.9499;1.9959;
471.0000;0.9451;1.9911;
471.3000;0.9483;2.0056;
471.6000;0.9467;2.0008;
471.9000;0.9442;1.9935;
472.2000;0.9467;1.9984;
472.5000;0.9451;1.9959;
472.8000;0.9475;2.0008;
473.1000;0.9442;2.0008;
473.4000;0.9442;1.9959;
473.7000;0.9475;2.0008;
474.0000;0.9451;1.9838;
474.3000;0.9418;1.9741;
474.6000;0.9442;1.9741;
474.9000;0.9451;1.9741;
475.2000;0.9467;1.9765;
475.5000;0.9410;1.9619;
475.8000;0.9451;1.9814;
476.1000;0.9459;1.9838;
476.4000;0.9426;1.9692;
476.7000;0.9467;1.9765;
477.0000;0.9434;1.9619;
477.3000;0.9451;1.9595;
477.6000;0.9459;1.9644;
477.9000;0.9475;1.9668;
478.2000;0.9475;1.9716;
478.5000;0.9451;1.9716;
478.8000;0.9467;1.9789;
479.1000;0.9459;1.9716;
479.4000;0.9451;1.9741;
479.7000;0.9467;1.9716;
480.0000;0.9459;1.9644;
480.3000;0.9459;1.9692;
480.6000;0.9459;1.9741;
480.9000;0.9467;1.9741;
481.2000;0.9467;1.9741;
481.5000;0.9459;1.9692;
481.8000;0.9451;1.9668;
482.1000;0.9442;1.9692;
482.4000;0.9459;1.9644;
482.7000;0.9442;1.9644;
483.0000;0.9451;1.9644;
483.3000;0.9442;1.9765;
483.6000;0.9451;1.9814;
483.9000;0.9467;1.9838;
484.2000;0.9434;1.9765;
484.5000;0.9451;1.9838;
484.8000;0.9434;1.9814;
485.1000;0.9434;1.9886;
485.4000;0.9442;1.9911;
485.7000;0.9451;1.9911;
486.0000;0.9402;1.9862;
486.3000;0.9467;2.0056;
486.6000;0.9451;2.0032;
486.9000;0.9459;1.9984;
487.2000;0.9467;1.9959;
487.5000;0.9459;1.9959;
487.8000;0.9467;2.0008;
488.1000;0.9475;2.0008;
488.4000;0.9434;1.9935;
488.7000;0.9459;2.0008;
489.0000;0.9394;1.9911;
489.3000;0.9442;2.0081;
489.6000;0.9418;2.0032;
489.9000;0.9451;2.0154;
490.2000;0.9459;2.0081;
490.5000;0.9442;2.0032;
490.8000;0.9451;2.0081;
491.1000;0.9459;2.0178;
491.4000;0.9459;2.0105;
491.7000;0.9451;2.0154;
492.0000;0.9418;2.0032;
492.3000;0.9451;2.0081;
492.6000;0.9459;2.0008;
492.9000;0.9467;2.0056;
493.2000;0.9459;2.0081;
493.5000;0.9459;2.0056;
493.8000;0.9459;2.0081;
494.1000;0.9459;2.0081;
494.4000;0.9442;2.0081;
494.7000;0.9451;2.0056;
495.0000;0.9451;2.0032;
495.3000;0.9459;2.0056;
495.6000;0.9459;2.0008;
495.9000;0.9451;2.0056;
496.2000;0.9451;2.0032;
496.5000;0.9467;2.0081;
496.8000;0.9483;2.0081;
497.1000;0.9459;1.9984;
497.4000;0.9402;1.9789;
497.7000;0.9434;1.9862;
498.0000;0.9451;1.9886;
498.3000;0.9483;1.9911;
498.6000;0.9451;1.9838;
498.9000;0.9499;2.0032;
499.2000;0.9467;2.0008;
499.5000;0.9459;1.9959;
499.8000;0.9451;1.9862;
500.1000;0.9467;1.9911;
500.4000;0.9459;1.9935;
500.7000;0.9467;2.0008;
501.0000;0.9442;2.0056;
501.3000;0.9451;2.0105;
501.6000;0.9459;2.0056;
501.9000;0.9451;1.9959;
502.2000;0.9491;2.0032;
502.5000;0.9483;2.0056;
502.8000;0.9467;2.0056;
503.1000;0.9467;2.0154;
503.4000;0.9459;2.0105;
503.7000;0.9451;2.0081;
504.0000;0.9385;1.9862;
504.3000;0.9451;1.9911;
504.6000;0.9451;1.9959;
504.9000;0.9459;1.9935;
505.2000;0.9434;1.9886;
505.5000;0.9467;1.9984;
505.8000;0.9459;1.9984;
506.1000;0.9475;2.0129;
506.4000;0.9459;2.0056;
506.7000;0.9442;2.0032;
507.0000;0.9483;2.0154;
507.3000;0.9451;1.9959;
507.6000;0.9434;1.9935;
507.9000;0.9418;1.9935;
508.2000;0.9508;2.0105;
508.5000;0.9459;1.9935;
508.8000;0.9459;1.9984;
509.1000;0.9353;1.9716;
509.4000;0.9467;2.0032;
509.7000;0.9540;2.0299;
510.0000;0.9442;2.0081;
510.3000;0.9434;2.0081;
510.6000;0.9467;2.0081;
510.9000;0.9467;2.0008;
511.2000;0.9467;1.9911;
511.5000;0.9451;1.9886;
511.8000;0.9451;1.9935;
512.1000;0.9451;1.9984;
512.4000;0.9467;1.9959;
512.7000;0.9467;2.0008;
513.0000;0.9451;2.0032;
513.3000;0.9459;2.0032;
513.6000;0.9467;2.0105;
513.9000;0.9459;2.0081;
514.2000;0.9459;2.0081;
514.5000;0.9483;2.0226;
514.8000;0.9467;2.0275;
515.1000;0.9451;2.0251;
515.4000;0.9426;2.0178;
515.7000;0.9442;2.0154;
516.0000;0.9459;2.0056;
516.3000;0.9394;1.9959;
516.6000;0.9442;2.0154;
516.9000;0.9467;2.0154;
517.2000;0.9451;2.0178;
517.5000;0.9451;2.0202;
517.8000;0.9442;2.0202;
518.1000;0.9475;2.0299;
518.4000;0.9451;2.0299;
518.7000;0.9467;2.0226;
519.0000;0.9499;2.0299;
519.3000;0.9418;1.9984;
519.6000;0.9475;2.0154;
519.9000;0.9467;2.0129;
520.2000;0.9434;2.0056;
520.5000;0.9394;1.9959;
520.8000;0.9451;2.0081;
521.1000;0.9491;2.0154;
521.4000;0.9475;2.0178;
521.7000;0.9442;2.0154;
522.0000;0.9459;2.0178;
522.3000;0.9426;2.0105;
522.6000;0.9451;2.0105;
522.9000;0.9451;2.0105;
523.2000;0.9451;2.0105;
523.5000;0.9402;1.9984;
523.8000;0.9467;1.9984;
524.1000;0.9483;2.0056;
524.4000;0.9459;2.0056;
524.7000;0.9459;2.0032;
525.0000;0.9475;2.0081;
525.3000;0.9442;1.9984;
525.6000;0.9434;1.9935;
525.9000;0.9467;2.0032;
526.2000;0.9434;2.0008;
526.5000;0.9442;2.0081;
526.8000;0.9442;2.0081;
527.1000;0.9442;2.0081;
527.4000;0.9467;2.0105;
527.7000;0.9459;2.0129;
528.0000;0.9442;2.0105;
528.3000;0.9451;2.0154;
528.6000;0.9442;2.0081;
528.9000;0.9451;2.0129;
529.2000;0.9459;2.0105;
529.5000;0.9442;1.9935;
529.8000;0.9459;2.0008;
530.1000;0.9540;2.0154;
530.4000;0.9459;1.9886;
530.7000;0.9459;1.9862;
531.0000;0.9451;1.9911;
531.3000;0.9459;2.0008;
531.6000;0.9451;1.9911;
531.9000;0.9451;2.0056;
532.2000;0.9451;2.0105;
532.5000;0.9442;2.0178;
532.8000;0.9442;2.0081;
533.1000;0.9418;1.9959;
533.4000;0.9418;1.9911;
533.7000;0.9434;2.0032;
534.0000;0.9451;2.0008;
534.3000;0.9451;2.0032;
534.6000;0.9442;2.0008;
534.9000;0.9442;2.0032;
535.2000;0.9426;2.0056;
535.5000;0.9426;2.0056;
535.8000;0.9442;2.0008;
536.1000;0.9459;2.0008;
536.4000;0.9483;2.0032;
536.7000;0.9426;1.9886;
537.0000;0.9451;1.9886;
537.3000;0.9451;1.9911;
537.6000;0.9451;1.9935;
537.9000;0.9442;1.9838;
538.2000;0.9410;1.9886;
538.5000;0.9459;2.0008;
538.8000;0.9467;2.0032;
539.1000;0.9459;2.0008;
539.4000;0.9377;1.9814;
539.7000;0.9491;2.0129;
540.0000;0.9442;1.9959;
540.3000;0.9451;2.0008;
540.6000;0.9548;2.0226;
540.9000;0.9434;1.9984;
541.2000;0.9402;1.9911;
541.5000;0.9426;1.9886;
541.8000;0.9451;1.9911;
542.1000;0.9451;1.9984;
542.4000;0.9426;1.9984;
542.7000;0.9459;1.9959;
543.0000;0.9451;2.0056;
543.3000;0.9442;2.0008;
543.6000;0.9442;2.0129;
543.9000;0.9418;2.0032;
544.2000;0.9442;2.0105;
544.5000;0.9483;2.0154;
544.8000;0.9451;2.0056;
545.1000;0.9442;2.0056;
545.4000;0.9459;2.0008;
545.7000;0.9418;1.9862;
546.0000;0.9442;1.9886;
546.3000;0.9451;1.9838;
546.6000;0.9459;1.9862;
546.9000;0.9451;1.9862;
547.2000;0.9402;1.9838;
547.5000;0.9451;1.9959;
547.8000;0.9442;2.0032;
548.1000;0.9459;2.0129;
548.4000;0.9434;2.0105;
548.7000;0.9459;2.0081;
549.0000;0.9459;2.0081;
549.3000;0.9459;2.0056;
549.6000;0.9459;2.0056;
549.9000;0.9499;2.0056;
550.2000;0.9459;1.9959;
550.5000;0.9442;1.9935;
550.8000;0.9459;2.0008;
551.1000;0.9426;1.9886;
551.4000;0.9451;1.9886;
551.7000;0.9459;1.9959;
552.0000;0.9459;1.9959;
552.3000;0.9426;1.9911;
552.6000;0.9410;1.9959;
552.9000;0.9434;2.0081;
553.2000;0.9451;2.0032;
553.5000;0.9426;2.0056;
553.8000;0.9434;2.0032;
554.1000;0.9442;2.0056;
554.4000;0.9442;1.9984;
554.7000;0.9369;1.9886;
555.0000;0.9442;1.9886;
555.3000;0.9451;1.9886;
555.6000;0.9459;1.9886;
555.9000;0.9459;1.9935;
556.2000;0.9442;1.9862;
556.5000;0.9451;1.9765;
556.8000;0.9410;1.9692;
557.1000;0.9434;1.9692;
557.4000;0.9426;1.9716;
557.7000;0.9410;1.9741;
558.0000;0.9418;1.9765;
558.3000;0.9434;1.9935;
558.6000;0.9418;1.9935;
558.9000;0.9442;2.0008;
559.2000;0.9442;2.0105;
559.5000;0.9467;2.0129;
559.8000;0.9442;2.0008;
560.1000;0.9467;2.0081;
560.4000;0.9467;2.0081;
560.7000;0.9483;2.0081;
561.0000;0.9459;2.0105;
561.3000;0.9442;2.0129;
561.6000;0.9442;2.0129;
561.9000;0.9459;2.0105;
562.2000;0.9451;2.0154;
562.5000;0.9402;2.0032;
562.8000;0.9434;2.0129;
563.1000;0.9451;2.0129;
563.4000;0.9377;1.9862;
563.7000;0.9524;2.0202;
564.0000;0.9434;2.0032;
564.3000;0.9491;2.0081;
564.6000;0.9442;1.9959;
564.9000;0.9459;2.0056;
565.2000;0.9442;2.0105;
565.5000;0.9451;2.0056;
565.8000;0.9467;2.0129;
566.1000;0.9451;2.0056;
566.4000;0.9467;1.9984;
566.7000;0.9426;1.9838;
567.0000;0.9451;1.9911;
567.3000;0.9442;1.9911;
567.6000;0.9442;1.9838;
567.9000;0.9442;1.9911;
568.2000;0.9451;1.9959;
568.5000;0.9434;1.9984;
568.8000;0.9451;1.9984;
569.1000;0.9451;2.0032;
569.4000;0.9451;2.0105;
569.7000;0.9434;2.0081;
570.0000;0.9418;1.9862;
570.3000;0.9475;2.0008;
570.6000;0.9451;2.0008;
570.9000;0.9442;2.0032;
571.2000;0.9459;2.0056;
571.5000;0.9540;2.0275;
571.8000;0.9459;2.0056;
572.1000;0.9459;2.0105;
572.4000;0.9442;2.0056;
572.7000;0.9442;2.0008;
573.0000;0.9459;2.0105;
573.3000;0.9451;2.0154;
573.6000;0.9467;2.0129;
573.9000;0.9442;2.0129;
574.2000;0.9442;2.0008;
574.5000;0.9434;1.9959;
574.8000;0.9434;1.9959;
575.1000;0.9451;1.9911;
575.4000;0.9459;1.9935;
575.7000;0.9442;1.9862;
576.0000;0.9459;1.9886;
576.3000;0.9410;1.9814;
576.6000;0.9410;1.9911;
576.9000;0.9442;2.0032;
577.2000;0.9442;2.0056;
577.5000;0.9451;1.9984;
577.8000;0.9442;1.9984;
578.1000;0.9426;1.9959;
578.4000;0.9459;1.9935;
578.7000;0.9459;2.0008;
579.0000;0.9459;2.0008;
579.3000;0.9451;2.0032;
579.6000;0.9426;2.0129;
579.9000;0.9434;2.0178;
580.2000;0.9434;2.0154;
580.5000;0.9426;1.9911;
580.8000;0.9451;2.0008;
581.1000;0.9418;1.9959;
581.4000;0.9418;1.9862;
581.7000;0.9434;1.9886;
582.0000;0.9434;1.9862;
582.3000;0.9418;1.9935;
582.6000;0.9426;1.9911;
582.9000;0.9418;1.9911;
583.2000;0.9402;1.9814;
583.5000;0.9442;1.9838;
583.8000;0.9442;1.9862;
584.1000;0.9442;1.9911;
584.4000;0.9475;2.0056;
584.7000;0.9442;1.9886;
585.0000;0.9442;1.9862;
585.3000;0.9426;1.9838;
585.6000;0.9442;1.9862;
585.9000;0.9451;1.9935;
586.2000;0.9434;1.9911;
586.5000;0.9451;1.9862;
586.8000;0.9442;1.9765;
587.1000;0.9418;1.9668;
587.4000;0.9451;1.9789;
587.7000;0.9475;2.0008;
588.0000;0.9434;1.9886;
588.3000;0.9426;1.9814;
588.6000;0.9426;1.9838;
588.9000;0.9426;1.9862;
589.2000;0.9434;1.9838;
589.5000;0.9418;1.9765;
589.8000;0.9418;1.9838;
590.1000;0.9451;1.9886;
590.4000;0.9475;1.9959;
590.7000;0.9418;1.9741;
591.0000;0.9410;1.9741;
591.3000;0.9434;1.9692;
591.6000;0.9434;1.9619;
591.9000;0.9434;1.9644;
592.2000;0.9410;1.9595;
592.5000;0.9451;1.9741;
592.8000;0.9442;1.9741;
593.1000;0.9451;1.9692;
593.4000;0.9434;1.9765;
593.7000;0.9442;1.9838;
594.0000;0.9434;1.9838;
594.3000;0.9499;2.0056;
594.6000;0.9434;1.9838;
594.9000;0.9442;1.9838;
595.2000;0.9434;1.9814;
595.5000;0.9467;1.9911;
595.8000;0.9442;1.9789;
596.1000;0.9410;1.9644;
596.4000;0.9426;1.9692;
596.7000;0.9442;1.9789;
597.0000;0.9426;1.9838;
597.3000;0.9434;1.9862;
597.6000;0.9442;1.9984;
597.9000;0.9451;2.0008;
598.2000;0.9451;1.9959;
598.5000;0.9442;2.0008;
598.8000;0.9434;1.9959;
599.1000;0.9442;1.9959;
599.4000;0.9459;2.0008;
599.7000;0.9442;1.9935;
600.0000;0.9426;1.9911;
600.3000;0.9451;1.9838;
600.6000;0.9442;1.9668;
600.9000;0.9320;1.9328;
601.2000;0.9345;1.9352;
601.5000;0.9304;1.9207;
601.8000;0.9223;1.8988;
602.1000;0.9158;1.8842;
602.4000;0.9076;1.8624;
602.7000;0.9027;1.8430;
603.0000;0.8954;1.8162;
603.3000;0.8897;1.7944;
603.6000;0.8824;1.7750;
603.9000;0.8742;1.7604;
604.2000;0.8702;1.7507;
604.5000;0.8645;1.7313;
604.8000;0.8563;1.7143;
605.1000;0.8547;1.7021;
605.4000;0.8506;1.6924;
605.7000;0.8441;1.6851;
606.0000;0.8384;1.6803;
606.3000;0.8376;1.6827;
606.6000;0.8303;1.6754;
606.9000;0.8295;1.6681;
607.2000;0.8262;1.6633;
607.5000;0.8197;1.6536;
607.8000;0.8164;1.6487;
608.1000;0.8124;1.6414;
608.4000;0.8132;1.6487;
608.7000;0.8042;1.6366;
609.0000;0.8010;1.6317;
609.3000;0.7977;1.6196;
609.6000;0.7953;1.6074;
609.9000;0.7937;1.6050;
610.2000;0.7855;1.5783;
610.5000;0.7863;1.5807;
610.8000;0.7814;1.5759;
611.1000;0.7782;1.5759;
611.4000;0.7733;1.5613;
611.7000;0.7717;1.5686;
612.0000;0.7700;1.5637;
612.3000;0.7635;1.5540;
612.6000;0.7562;1.5443;
612.9000;0.7627;1.5661;
613.2000;0.7578;1.5589;
613.5000;0.7546;1.5613;
613.8000;0.7513;1.5419;
614.1000;0.7481;1.5273;
614.4000;0.7448;1.5224;
614.7000;0.7448;1.5200;
615.0000;0.7399;1.5176;
615.3000;0.7383;1.5200;
615.6000;0.7350;1.5273;
615.9000;0.7326;1.5370;
616.2000;0.7310;1.5322;
616.5000;0.7302;1.5297;
616.8000;0.7253;1.5297;
617.1000;0.7212;1.5224;
617.4000;0.7220;1.5249;
617.7000;0.7212;1.5249;
618.0000;0.7188;1.5176;
618.3000;0.7188;1.5273;
618.6000;0.7131;1.5273;
618.9000;0.7147;1.5394;
619.2000;0.7114;1.5370;
619.5000;0.7114;1.5322;
619.8000;0.7090;1.5249;
620.1000;0.7082;1.5273;
620.4000;0.7017;1.5176;
620.7000;0.6992;1.5224;
621.0000;0.7000;1.5297;
621.3000;0.6976;1.5273;
621.6000;0.6960;1.5224;
621.9000;0.6943;1.5152;
622.2000;0.6935;1.5224;
622.5000;0.6919;1.5200;
622.8000;0.6886;1.5176;
623.1000;0.6870;1.5249;
623.4000;0.6870;1.5297;
623.7000;0.6846;1.5200;
624.0000;0.6919;1.5322;
624.3000;0.6813;1.5079;
624.6000;0.6797;1.5006;
624.9000;0.6797;1.4982;
625.2000;0.6789;1.4982;
625.5000;0.6740;1.4957;
625.8000;0.6756;1.5079;
626.1000;0.6732;1.5006;
626.4000;0.6732;1.5030;
626.7000;0.6716;1.5030;
627.0000;0.6707;1.4933;
627.3000;0.6675;1.4933;
627.6000;0.6650;1.4909;
627.9000;0.6650;1.4860;
628.2000;0.6650;1.4909;
628.5000;0.6642;1.4836;
628.8000;0.6618;1.4812;
629.1000;0.6610;1.4860;
629.4000;0.6593;1.4884;
629.7000;0.6602;1.4884;
630.0000;0.6585;1.4812;
630.3000;0.6561;1.4860;
630.6000;0.6553;1.4982;
630.9000;0.6545;1.4909;
631.2000;0.6545;1.4909;
631.5000;0.6520;1.4860;
631.8000;0.6512;1.4787;
632.1000;0.6471;1.4642;
632.4000;0.6496;1.4690;
632.7000;0.6528;1.4787;
633.0000;0.6447;1.4617;
633.3000;0.6471;1.4690;
633.6000;0.6496;1.4739;
633.9000;0.6439;1.4666;
634.2000;0.6447;1.4739;
634.5000;0.6414;1.4690;
634.8000;0.6398;1.4690;
635.1000;0.6431;1.4787;
635.4000;0.6447;1.4884;
635.7000;0.6382;1.4714;
636.0000;0.6357;1.4642;
636.3000;0.6414;1.4787;
636.6000;0.6374;1.4642;
636.9000;0.6341;1.4666;
637.2000;0.6341;1.4617;
637.5000;0.6268;1.4447;
637.8000;0.6349;1.4690;
638.1000;0.6300;1.4666;
638.4000;0.6349;1.4933;
638.7000;0.6309;1.4909;
639.0000;0.6341;1.4884;
639.3000;0.6300;1.4787;
639.6000;0.6284;1.4763;
639.9000;0.6357;1.4909;
640.2000;0.6276;1.4739;
640.5000;0.6268;1.4763;
640.8000;0.6260;1.4690;
641.1000;0.6276;1.4739;
641.4000;0.6235;1.4642;
641.7000;0.6243;1.4690;
642.0000;0.6227;1.4690;
642.3000;0.6203;1.4787;
642.6000;0.6211;1.4836;
642.9000;0.6211;1.4909;
643.2000;0.6219;1.4982;
643.5000;0.6195;1.4957;
643.8000;0.6186;1.4884;
644.1000;0.6203;1.4933;
644.4000;0.6186;1.4884;
644.7000;0.6162;1.4787;
645.0000;0.6170;1.4787;
645.3000;0.6154;1.4690;
645.6000;0.6186;1.4812;
645.9000;0.6138;1.4642;
646.2000;0.6154;1.4666;
646.5000;0.6146;1.4714;
646.8000;0.6178;1.4787;
647.1000;0.6146;1.4714;
647.4000;0.6113;1.4714;
647.7000;0.6097;1.4617;
648.0000;0.6097;1.4593;
648.3000;0.6097;1.4520;
648.6000;0.6081;1.4472;
648.9000;0.6097;1.4545;
649.2000;0.6081;1.4569;
649.5000;0.6072;1.4569;
649.8000;0.6056;1.4593;
650.1000;0.6072;1.4617;
650.4000;0.6064;1.4666;
650.7000;0.6064;1.4714;
651.0000;0.6056;1.4787;
651.3000;0.6024;1.4593;
651.6000;0.6064;1.4617;
651.9000;0.6056;1.4569;
652.2000;0.6081;1.4593;
652.5000;0.6024;1.4423;
652.8000;0.5991;1.4447;
653.1000;0.5999;1.4472;
653.4000;0.5975;1.4423;
653.7000;0.6032;1.4666;
654.0000;0.6024;1.4642;
654.3000;0.6024;1.4739;
654.6000;0.5991;1.4714;
654.9000;0.6007;1.4690;
655.2000;0.6015;1.4763;
655.5000;0.5999;1.4763;
655.8000;0.5991;1.4739;
656.1000;0.5910;1.4472;
656.4000;0.5967;1.4642;
656.7000;0.5975;1.4617;
657.0000;0.5967;1.4520;
657.3000;0.5958;1.4520;
657.6000;0.5950;1.4545;
657.9000;0.5877;1.4399;
658.2000;0.5942;1.4666;
658.5000;0.5902;1.4569;
658.8000;0.5950;1.4642;
659.1000;0.5918;1.4569;
659.4000;0.5942;1.4545;
659.7000;0.5910;1.4520;
660.0000;0.5918;1.4496;
660.3000;0.5918;1.4520;
660.6000;0.5934;1.4496;
660.9000;0.5918;1.4496;
661.2000;0.5902;1.4520;
661.5000;0.5918;1.4617;
661.8000;0.5902;1.4569;
662.1000;0.5902;1.4569;
662.4000;0.5910;1.4569;
662.7000;0.5910;1.4569;
663.0000;0.5885;1.4520;
663.3000;0.5902;1.4545;
663.6000;0.5910;1.4593;
663.9000;0.5877;1.4545;
664.2000;0.5877;1.4617;
664.5000;0.5836;1.4569;
664.8000;0.5885;1.4666;
665.1000;0.5853;1.4642;
665.4000;0.5861;1.4690;
665.7000;0.5861;1.4763;
666.0000;0.5869;1.4860;
666.3000;0.5869;1.4860;
666.6000;0.5845;1.4812;
666.9000;0.5869;1.4884;
667.2000;0.5845;1.4860;
667.5000;0.5853;1.4787;
667.8000;0.5853;1.4642;
668.1000;0.5853;1.4593;
668.4000;0.5836;1.4593;
668.7000;0.5820;1.4545;
669.0000;0.5836;1.4642;
669.3000;0.5869;1.4787;
669.6000;0.5828;1.4690;
669.9000;0.5845;1.4593;
670.2000;0.5812;1.4593;
670.5000;0.5820;1.4714;
670.8000;0.5804;1.4642;
671.1000;0.5812;1.4642;
671.4000;0.5812;1.4666;
671.7000;0.5820;1.4714;
672.0000;0.5820;1.4690;
672.3000;0.5771;1.4714;
672.6000;0.5820;1.4860;
672.9000;0.5796;1.4763;
673.2000;0.5804;1.4787;
673.5000;0.5812;1.4739;
673.8000;0.5796;1.4763;
674.1000;0.5796;1.4739;
674.4000;0.5796;1.4739;
674.7000;0.5788;1.4836;
675.0000;0.5788;1.4860;
675.3000;0.5812;1.4957;
675.6000;0.5788;1.4982;
675.9000;0.5779;1.4957;
676.2000;0.5771;1.4982;
676.5000;0.5771;1.4957;
676.8000;0.5771;1.4982;
677.1000;0.5779;1.5006;
677.4000;0.5763;1.4909;
677.7000;0.5763;1.4860;
678.0000;0.5763;1.4909;
678.3000;0.5771;1.4909;
678.6000;0.5755;1.4909;
678.9000;0.5779;1.4909;
679.2000;0.5731;1.4860;
679.5000;0.5739;1.4836;
679.8000;0.5739;1.4836;
680.1000;0.5747;1.4739;
680.4000;0.5755;1.4617;
680.7000;0.5739;1.4593;
681.0000;0.5739;1.4617;
681.3000;0.5731;1.4617;
681.6000;0.5763;1.4763;
681.9000;0.5739;1.4714;
682.2000;0.5731;1.4787;
682.5000;0.5747;1.4739;
682.8000;0.5731;1.4714;
683.1000;0.5722;1.4763;
683.4000;0.5739;1.4763;
683.7000;0.5714;1.4739;
684.0000;0.5722;1.4666;
684.3000;0.5690;1.4617;
684.6000;0.5747;1.4714;
684.9000;0.5722;1.4690;
685.2000;0.5698;1.4739;
685.5000;0.5698;1.4714;
685.8000;0.5698;1.4812;
686.1000;0.5706;1.4884;
686.4000;0.5714;1.4884;
686.7000;0.5706;1.4787;
687.0000;0.5690;1.4714;
687.3000;0.5682;1.4763;
687.6000;0.5690;1.4860;
687.9000;0.5747;1.4933;
688.2000;0.5698;1.4933;
688.5000;0.5674;1.4884;
688.8000;0.5682;1.4884;
689.1000;0.5714;1.5006;
689.4000;0.5698;1.4957;
689.7000;0.5674;1.4860;
690.0000;0.5690;1.4909;
690.3000;0.5674;1.4909;
690.6000;0.5682;1.4957;
690.9000;0.5682;1.4982;
691.2000;0.5682;1.5030;
691.5000;0.5649;1.5030;
691.8000;0.5657;1.5054;
692.1000;0.5649;1.5006;
692.4000;0.5674;1.4933;
692.7000;0.5665;1.4812;
693.0000;0.5674;1.4812;
693.3000;0.5665;1.4763;
693.6000;0.5706;1.4933;
693.9000;0.5665;1.4860;
694.2000;0.5625;1.4763;
694.5000;0.5641;1.4787;
694.8000;0.5674;1.4787;
695.1000;0.5657;1.4739;
695.4000;0.5665;1.4714;
695.7000;0.5600;1.4593;
696.0000;0.5649;1.4812;
696.3000;0.5649;1.4836;
696.6000;0.5657;1.4860;
696.9000;0.5649;1.4860;
697.2000;0.5665;1.4860;
697.5000;0.5649;1.4812;
697.8000;0.5633;1.4763;
698.1000;0.5657;1.4812;
698.4000;0.5633;1.4763;
698.7000;0.5649;1.4763;
699.0000;0.5641;1.4787;
699.3000;0.5641;1.4812;
699.6000;0.5641;1.4933;
699.9000;0.5633;1.4982;
700.2000;0.5625;1.4957;
700.5000;0.5633;1.4933;
700.8000;0.5657;1.4957;
701.1000;0.5625;1.4884;
701.4000;0.5551;1.4714;
701.7000;0.5633;1.4982;
702.0000;0.5633;1.4982;
702.3000;0.5625;1.4909;
702.6000;0.5625;1.4957;
702.9000;0.5649;1.5079;
703.2000;0.5633;1.5054;
703.5000;0.5625;1.5030;
703.8000;0.5617;1.5127;
704.1000;0.5617;1.5152;
704.4000;0.5625;1.5200;
704.7000;0.5641;1.5176;
705.0000;0.5617;1.5079;
705.3000;0.5641;1.5054;
705.6000;0.5625;1.5006;
705.9000;0.5576;1.4933;
706.2000;0.5608;1.4982;
706.5000;0.5617;1.5030;
706.8000;0.5608;1.5030;
707.1000;0.5625;1.5030;
707.4000;0.5584;1.4982;
707.7000;0.5608;1.5006;
708.0000;0.5625;1.5054;
708.3000;0.5584;1.5054;
708.6000;0.5592;1.5079;
708.9000;0.5592;1.5030;
709.2000;0.5584;1.4957;
709.5000;0.5625;1.5103;
709.8000;0.5592;1.5030;
710.1000;0.5592;1.5127;
710.4000;0.5592;1.5006;
710.7000;0.5608;1.4982;
711.0000;0.5608;1.4957;
711.3000;0.5584;1.4957;
711.6000;0.5568;1.4884;
711.9000;0.5592;1.4957;
712.2000;0.5584;1.4884;
712.5000;0.5649;1.4982;
712.8000;0.5592;1.4884;
713.1000;0.5600;1.4884;
713.4000;0.5600;1.4909;
713.7000;0.5576;1.4836;
714.0000;0.5592;1.4933;
714.3000;0.5584;1.4909;
714.6000;0.5592;1.5054;
714.9000;0.5568;1.5054;
715.2000;0.5576;1.5030;
715.5000;0.5568;1.5103;
715.8000;0.5568;1.5006;
716.1000;0.5600;1.5006;
716.4000;0.5584;1.5006;
716.7000;0.5592;1.5006;
717.0000;0.5576;1.4982;
717.3000;0.5617;1.5103;
717.6000;0.5576;1.5030;
717.9000;0.5584;1.5079;
718.2000;0.5576;1.5006;
718.5000;0.5576;1.5054;
718.8000;0.5617;1.5152;
719.1000;0.5551;1.4982;
719.4000;0.5576;1.5030;
719.7000;0.5551;1.4982;
720.0000;0.5576;1.5079;
720.3000;0.5543;1.5054;
720.6000;0.5633;1.5224;
720.9000;0.5551;1.5103;
721.2000;0.5560;1.5103;
721.5000;0.5551;1.5079;
721.8000;0.5543;1.5030;
722.1000;0.5551;1.5006;
722.4000;0.5568;1.4982;
722.7000;0.5551;1.4957;
723.0000;0.5551;1.4933;
723.3000;0.5551;1.5006;
723.6000;0.5560;1.4957;
723.9000;0.5592;1.5006;
724.2000;0.5560;1.4982;
724.5000;0.5543;1.4982;
724.8000;0.5568;1.5030;
725.1000;0.5535;1.4982;
725.4000;0.5519;1.4884;
725.7000;0.5551;1.5030;
726.0000;0.5551;1.5054;
726.3000;0.5535;1.5006;
726.6000;0.5535;1.5054;
726.9000;0.5495;1.4957;
727.2000;0.5551;1.5030;
727.5000;0.5584;1.5079;
727.8000;0.5519;1.4812;
728.1000;0.5535;1.4909;
728.4000;0.5560;1.4982;
728.7000;0.5535;1.5006;
729.0000;0.5551;1.4957;
729.3000;0.5560;1.4957;
729.6000;0.5535;1.4836;
729.9000;0.5543;1.4909;
730.2000;0.5527;1.4933;
730.5000;0.5527;1.4909;
730.8000;0.5519;1.4933;
731.1000;0.5511;1.4909;
731.4000;0.5535;1.4982;
731.7000;0.5519;1.4836;
732.0000;0.5519;1.4860;
732.3000;0.5535;1.4909;
732.6000;0.5551;1.4884;
732.9000;0.5535;1.4860;
733.2000;0.5527;1.4909;
733.5000;0.5486;1.4933;
733.8000;0.5535;1.5006;
734.1000;0.5519;1.5006;
734.4000;0.5503;1.4909;
734.7000;0.5511;1.4957;
735.0000;0.5519;1.5030;
735.3000;0.5543;1.4909;
735.6000;0.5519;1.4812;
735.9000;0.5527;1.4860;
736.2000;0.5519;1.4884;
736.5000;0.5527;1.4957;
736.8000;0.5503;1.4860;
737.1000;0.5527;1.4860;
737.4000;0.5519;1.4812;
737.7000;0.5511;1.4884;
738.0000;0.5551;1.4957;
738.3000;0.5519;1.4884;
738.6000;0.5560;1.4957;
738.9000;0.5527;1.4812;
739.2000;0.5535;1.4884;
739.5000;0.5519;1.4812;
739.8000;0.5535;1.4860;
740.1000;0.5527;1.4812;
740.4000;0.5535;1.4860;
740.7000;0.5551;1.4933;
741.0000;0.5511;1.4739;
741.3000;0.5511;1.4812;
741.6000;0.5519;1.4812;
741.9000;0.5519;1.4812;
742.2000;0.5511;1.4787;
742.5000;0.5495;1.4836;
742.8000;0.5511;1.4812;
743.1000;0.5503;1.4860;
743.4000;0.5495;1.4860;
743.7000;0.5486;1.4860;
744.0000;0.5535;1.4909;
744.3000;0.5495;1.4836;
744.6000;0.5535;1.5006;
744.9000;0.5519;1.4982;
745.2000;0.5519;1.4909;
745.5000;0.5519;1.4860;
745.8000;0.5503;1.4812;
746.1000;0.5519;1.4812;
746.4000;0.5535;1.4812;
746.7000;0.5511;1.4787;
747.0000;0.5495;1.4836;
747.3000;0.5446;1.4714;
747.6000;0.5495;1.4836;
747.9000;0.5495;1.4884;
748.2000;0.5495;1.4812;
748.5000;0.5486;1.4836;
748.8000;0.5503;1.4933;
749.1000;0.5495;1.4957;
749.4000;0.5462;1.4909;
749.7000;0.5511;1.5030;
750.0000;0.5511;1.5079;
750.3000;0.5486;1.5054;
750.6000;0.5511;1.5103;
750.9000;0.5511;1.5006;
751.2000;0.5503;1.4836;
751.5000;0.5486;1.4884;
751.8000;0.5511;1.4909;
752.1000;0.5470;1.4836;
752.4000;0.5470;1.4836;
752.7000;0.5486;1.4909;
753.0000;0.5503;1.4812;
753.3000;0.5405;1.4520;
753.6000;0.5413;1.4617;
753.9000;0.5511;1.4982;
754.2000;0.5486;1.4933;
754.5000;0.5486;1.4982;
754.8000;0.5486;1.4957;
755.1000;0.5446;1.4933;
755.4000;0.5503;1.5030;
755.7000;0.5478;1.4982;
756.0000;0.5519;1.5152;
756.3000;0.5478;1.5079;
756.6000;0.5478;1.5006;
756.9000;0.5519;1.5006;
757.2000;0.5470;1.4860;
757.5000;0.5478;1.4884;
757.8000;0.5470;1.4933;
758.1000;0.5478;1.4957;
758.4000;0.5486;1.4957;
758.7000;0.5462;1.4836;
759.0000;0.5527;1.4982;
759.3000;0.5486;1.4884;
759.6000;0.5478;1.5006;
759.9000;0.5446;1.4982;
760.2000;0.5470;1.5006;
760.5000;0.5478;1.4982;
760.8000;0.5478;1.4933;
761.1000;0.5503;1.4957;
761.4000;0.5454;1.4739;
761.7000;0.5470;1.4763;
762.0000;0.5486;1.4812;
762.3000;0.5478;1.4714;
762.6000;0.5454;1.4666;
762.9000;0.5470;1.4739;
763.2000;0.5486;1.4787;
763.5000;0.5462;1.4763;
763.8000;0.5446;1.4812;
764.1000;0.5511;1.4933;
764.4000;0.5478;1.4957;
764.7000;0.5478;1.4884;
765.0000;0.5470;1.4836;
765.3000;0.5462;1.4739;
765.6000;0.5446;1.4812;
765.9000;0.5478;1.4860;
766.2000;0.5495;1.4933;
766.5000;0.5470;1.4982;
766.8000;0.5421;1.4860;
767.1000;0.5470;1.4933;
767.4000;0.5470;1.4860;
767.7000;0.5470;1.4933;
768.0000;0.5462;1.5006;
768.3000;0.5470;1.5054;
768.6000;0.5495;1.5054;
768.9000;0.5470;1.4982;
769.2000;0.5462;1.4909;
769.5000;0.5478;1.4909;
769.8000;0.5470;1.4933;
770.1000;0.5486;1.4933;
770.4000;0.5446;1.4909;
770.7000;0.5446;1.4957;
771.0000;0.5478;1.5054;
771.3000;0.5421;1.4957;
771.6000;0.5495;1.5176;
771.9000;0.5478;1.5127;
772.2000;0.5438;1.5054;
772.5000;0.5495;1.5152;
772.8000;0.5454;1.5079;
773.1000;0.5462;1.5030;
773.4000;0.5413;1.5006;
773.7000;0.5462;1.5079;
774.0000;0.5454;1.5006;
774.3000;0.5495;1.5176;
774.6000;0.5405;1.4982;
774.9000;0.5446;1.5079;
775.2000;0.5454;1.5030;
775.5000;0.5421;1.4982;
775.8000;0.5470;1.5103;
776.1000;0.5511;1.5200;
776.4000;0.5462;1.5006;
776.7000;0.5446;1.4909;
777.0000;0.5486;1.4982;
777.3000;0.5454;1.4836;
777.6000;0.5421;1.4787;
777.9000;0.5446;1.4812;
778.2000;0.5446;1.4763;
778.5000;0.5438;1.4860;
778.8000;0.5454;1.4860;
779.1000;0.5446;1.4860;
779.4000;0.5446;1.4787;
779.7000;0.5446;1.4763;
780.0000;0.5454;1.4836;
780.3000;0.5438;1.4787;
780.6000;0.5454;1.4860;
780.9000;0.5454;1.4933;
781.2000;0.5462;1.5030;
781.5000;0.5454;1.5079;
781.8000;0.5462;1.5079;
782.1000;0.5454;1.5079;
782.4000;0.5381;1.4860;
782.7000;0.5446;1.5030;
783.0000;0.5438;1.5006;
783.3000;0.5446;1.5006;
783.6000;0.5438;1.5030;
783.9000;0.5438;1.5030;
784.2000;0.5446;1.5054;
784.5000;0.5454;1.5030;
784.8000;0.5429;1.4933;
785.1000;0.5429;1.4884;
785.4000;0.5454;1.4933;
785.7000;0.5438;1.4836;
786.0000;0.5446;1.4860;
786.3000;0.5454;1.4836;
786.6000;0.5446;1.4860;
786.9000;0.5413;1.4739;
787.2000;0.5454;1.4884;
787.5000;0.5446;1.4884;
787.8000;0.5389;1.4836;
788.1000;0.5381;1.4860;
788.4000;0.5429;1.5079;
788.7000;0.5429;1.5054;
789.0000;0.5438;1.5006;
789.3000;0.5389;1.4812;
789.6000;0.5413;1.4982;
789.9000;0.5438;1.5054;
790.2000;0.5446;1.5127;
790.5000;0.5438;1.5152;
790.8000;0.5438;1.5127;
791.1000;0.5446;1.5176;
791.4000;0.5454;1.5200;
791.7000;0.5438;1.5200;
792.0000;0.5446;1.5152;
792.3000;0.5389;1.5006;
792.6000;0.5446;1.5176;
792.9000;0.5429;1.5176;
793.2000;0.5446;1.5152;
793.5000;0.5413;1.5054;
793.8000;0.5429;1.5079;
794.1000;0.5421;1.5006;
794.4000;0.5413;1.5054;
794.7000;0.5421;1.5152;
795.0000;0.5429;1.5176;
795.3000;0.5381;1.5054;
795.6000;0.5421;1.5127;
795.9000;0.5438;1.5152;
796.2000;0.5454;1.5127;
796.5000;0.5429;1.5030;
796.8000;0.5429;1.4884;
797.1000;0.5429;1.4884;
797.4000;0.5429;1.4933;
797.7000;0.5438;1.4909;
798.0000;0.5438;1.4884;
798.3000;0.5454;1.4957;
798.6000;0.5446;1.4884;
798.9000;0.5429;1.4812;
799.2000;0.5446;1.4836;
799.5000;0.5372;1.4666;
799.8000;0.5438;1.4787;
800.1000;0.5429;1.4836;
800.4000;0.5429;1.4909;
800.7000;0.5429;1.4933;
801.0000;0.5421;1.4860;
801.3000;0.5421;1.4812;
801.6000;0.5446;1.4836;
801.9000;0.5421;1.4860;
802.2000;0.5405;1.4787;
802.5000;0.5446;1.4909;
802.8000;0.5421;1.4812;
803.1000;0.5421;1.4787;
803.4000;0.5421;1.4836;
803.7000;0.5429;1.4860;
804.0000;0.5405;1.4812;
804.3000;0.5421;1.4909;
804.6000;0.5405;1.4884;
804.9000;0.5413;1.4909;
805.2000;0.5397;1.4860;
805.5000;0.5413;1.4909;
805.8000;0.5429;1.4957;
806.1000;0.5429;1.5030;
806.4000;0.5413;1.5006;
806.7000;0.5421;1.4957;
807.0000;0.5429;1.5054;
807.3000;0.5429;1.5054;
807.6000;0.5429;1.5006;
807.9000;0.5429;1.5006;
808.2000;0.5446;1.5127;
808.5000;0.5429;1.5103;
808.8000;0.5397;1.5030;
809.1000;0.5438;1.5176;
809.4000;0.5429;1.5127;
809.7000;0.5405;1.5006;
810.0000;0.5421;1.4982;
810.3000;0.5421;1.4909;
810.6000;0.5413;1.4909;
810.9000;0.5495;1.5103;
811.2000;0.5413;1.4909;
811.5000;0.5421;1.5054;
811.8000;0.5438;1.5030;
812.1000;0.5405;1.5054;
812.4000;0.5405;1.5006;
812.7000;0.5356;1.4812;
813.0000;0.5429;1.5030;
813.3000;0.5429;1.4982;
813.6000;0.5429;1.5006;
813.9000;0.5429;1.4957;
814.2000;0.5446;1.4933;
814.5000;0.5429;1.4909;
814.8000;0.5413;1.4836;
815.1000;0.5413;1.4763;
815.4000;0.5405;1.4714;
815.7000;0.5413;1.4787;
816.0000;0.5405;1.4690;
816.3000;0.5421;1.4739;
816.6000;0.5405;1.4714;
816.9000;0.5438;1.4836;
817.2000;0.5429;1.4884;
817.5000;0.5397;1.4860;
817.8000;0.5413;1.5006;
818.1000;0.5429;1.5030;
818.4000;0.5429;1.4982;
818.7000;0.5413;1.5006;
819.0000;0.5413;1.5006;
819.3000;0.5413;1.5079;
819.6000;0.5413;1.5127;
819.9000;0.5421;1.5103;
820.2000;0.5413;1.5054;
820.5000;0.5429;1.5200;
820.8000;0.5405;1.5152;
821.1000;0.5446;1.5200;
821.4000;0.5421;1.5200;
821.7000;0.5421;1.5200;
822.0000;0.5446;1.5224;
822.3000;0.5454;1.5322;
822.6000;0.5421;1.5394;
822.9000;0.5454;1.5467;
823.2000;0.5413;1.5297;
823.5000;0.5429;1.5249;
823.8000;0.5421;1.5176;
824.1000;0.5413;1.5127;
824.4000;0.5397;1.4982;
824.7000;0.5405;1.5030;
825.0000;0.5454;1.5176;
825.3000;0.5405;1.5054;
825.6000;0.5413;1.5054;
825.9000;0.5397;1.5030;
826.2000;0.5429;1.5079;
826.5000;0.5429;1.5103;
826.8000;0.5340;1.4836;
827.1000;0.5421;1.5054;
827.4000;0.5421;1.5103;
827.7000;0.5421;1.5127;
828.0000;0.5413;1.5103;
828.3000;0.5405;1.5127;
828.6000;0.5429;1.5224;
828.9000;0.5389;1.5200;
829.2000;0.5405;1.5103;
829.5000;0.5413;1.5030;
829.8000;0.5413;1.5079;
830.1000;0.5381;1.5079;
830.4000;0.5421;1.5200;
830.7000;0.5405;1.5224;
831.0000;0.5389;1.5249;
831.3000;0.5413;1.5224;
831.6000;0.5397;1.5127;
831.9000;0.5405;1.5103;
832.2000;0.5421;1.5079;
832.5000;0.5413;1.5127;
832.8000;0.5364;1.5079;
833.1000;0.5413;1.5079;
833.4000;0.5421;1.5079;
833.7000;0.5413;1.5030;
834.0000;0.5389;1.4957;
834.3000;0.5413;1.4982;
834.6000;0.5405;1.5054;
834.9000;0.5454;1.5249;
835.2000;0.5413;1.5079;
835.5000;0.5397;1.5030;
835.8000;0.5413;1.5103;
836.1000;0.5405;1.5127;
836.4000;0.5397;1.5127;
836.7000;0.5291;1.4812;
837.0000;0.5405;1.5152;
837.3000;0.5405;1.5103;
837.6000;0.5405;1.5030;
837.9000;0.5413;1.5103;
838.2000;0.5405;1.5103;
838.5000;0.5413;1.5127;
838.8000;0.5405;1.5079;
839.1000;0.5397;1.5103;
839.4000;0.5405;1.5103;
839.7000;0.5462;1.5249;
840.0000;0.5397;1.5176;
840.3000;0.5405;1.5103;
840.6000;0.5389;1.4982;
840.9000;0.5372;1.4909;
841.2000;0.5381;1.4982;
841.5000;0.5397;1.4933;
841.8000;0.5405;1.4982;
842.1000;0.5372;1.5006;
842.4000;0.5381;1.4909;
842.7000;0.5405;1.5079;
843.0000;0.5413;1.5079;
843.3000;0.5413;1.5103;
843.6000;0.5397;1.5030;
843.9000;0.5405;1.5054;
844.2000;0.5421;1.5152;
844.5000;0.5446;1.5224;
844.8000;0.5405;1.5176;
845.1000;0.5389;1.5152;
845.4000;0.5405;1.5152;
845.7000;0.5405;1.5054;
846.0000;0.5389;1.5103;
846.3000;0.5413;1.5127;
846.6000;0.5405;1.5127;
846.9000;0.5389;1.5054;
847.2000;0.5405;1.5103;
847.5000;0.5397;1.5079;
847.8000;0.5405;1.5030;
848.1000;0.5324;1.4860;
848.4000;0.5397;1.5030;
848.7000;0.5381;1.5030;
849.0000;0.5413;1.5127;
849.3000;0.5397;1.5054;
849.6000;0.5405;1.5079;
849.9000;0.5389;1.5103;
850.2000;0.5405;1.5152;
850.5000;0.5397;1.5200;
850.8000;0.5405;1.5176;
851.1000;0.5364;1.5103;
851.4000;0.5397;1.5152;
851.7000;0.5397;1.5152;
852.0000;0.5340;1.5006;
852.3000;0.5381;1.5079;
852.6000;0.5389;1.5079;
852.9000;0.5446;1.5249;
853.2000;0.5381;1.5054;
853.5000;0.5389;1.5152;
853.8000;0.5389;1.5224;
854.1000;0.5389;1.5079;
854.4000;0.5389;1.5079;
854.7000;0.5397;1.5079;
855.0000;0.5405;1.4982;
855.3000;0.5397;1.5030;
855.6000;0.5413;1.5079;
855.9000;0.5405;1.5103;
856.2000;0.5381;1.5054;
856.5000;0.5397;1.5054;
856.8000;0.5454;1.5224;
857.1000;0.5470;1.5346;
857.4000;0.5389;1.5152;
857.7000;0.5381;1.5127;
858.0000;0.5372;1.5103;
858.3000;0.5397;1.5054;
858.6000;0.5381;1.5006;
858.9000;0.5397;1.5006;
859.2000;0.5413;1.5054;
859.5000;0.5405;1.5054;
859.8000;0.5283;1.4836;
860.1000;0.5405;1.5103;
860.4000;0.5389;1.5079;
860.7000;0.5446;1.5273;
861.0000;0.5397;1.5249;
861.3000;0.5397;1.5152;
861.6000;0.5438;1.5224;
861.9000;0.5389;1.5127;
862.2000;0.5372;1.5030;
862.5000;0.5389;1.5054;
862.8000;0.5364;1.4982;
863.1000;0.5397;1.5054;
863.4000;0.5372;1.5030;
863.7000;0.5381;1.5079;
864.0000;0.5372;1.5006;
864.3000;0.5381;1.5030;
864.6000;0.5389;1.5006;
864.9000;0.5389;1.5030;
865.2000;0.5405;1.4982;
865.5000;0.5381;1.4957;
865.8000;0.5413;1.4982;
866.1000;0.5429;1.5103;
866.4000;0.5389;1.5079;
866.7000;0.5397;1.5103;
867.0000;0.5405;1.5152;
867.3000;0.5397;1.5152;
867.6000;0.5397;1.5127;
867.9000;0.5372;1.5079;
868.2000;0.5389;1.5200;
868.5000;0.5381;1.5200;
868.8000;0.5405;1.5152;
869.1000;0.5381;1.5030;
869.4000;0.5389;1.4982;
869.7000;0.5397;1.5079;
870.0000;0.5372;1.5030;
870.3000;0.5397;1.5054;
870.6000;0.5389;1.5152;
870.9000;0.5405;1.5176;
871.2000;0.5454;1.5297;
871.5000;0.5429;1.5249;
871.8000;0.5381;1.5079;
872.1000;0.5372;1.5030;
872.4000;0.5381;1.5079;
872.7000;0.5372;1.5079;
873.0000;0.5364;1.5079;
873.3000;0.5397;1.5200;
873.6000;0.5381;1.5176;
873.9000;0.5397;1.5176;
874.2000;0.5372;1.5103;
874.5000;0.5454;1.5297;
874.8000;0.5413;1.5152;
875.1000;0.5381;1.5079;
875.4000;0.5389;1.5200;
875.7000;0.5389;1.5200;
876.0000;0.5397;1.5127;
876.3000;0.5405;1.5200;
876.6000;0.5389;1.5103;
876.9000;0.5381;1.5103;
877.2000;0.5381;1.5079;
877.5000;0.5372;1.5030;
877.8000;0.5389;1.4982;
878.1000;0.5413;1.4933;
878.4000;0.5389;1.4860;
878.7000;0.5389;1.5006;
879.0000;0.5389;1.4982;
879.3000;0.5389;1.5006;
879.6000;0.5405;1.5079;
879.9000;0.5372;1.5030;
880.2000;0.5429;1.5127;
880.5000;0.5381;1.5030;
880.8000;0.5446;1.5127;
881.1000;0.5332;1.4860;
881.4000;0.5389;1.5030;
881.7000;0.5413;1.5152;
882.0000;0.5372;1.5103;
882.3000;0.5405;1.5152;
882.6000;0.5372;1.5103;
882.9000;0.5421;1.5224;
883.2000;0.5356;1.5054;
883.5000;0.5381;1.5030;
883.8000;0.5340;1.4982;
884.1000;0.5381;1.5200;
884.4000;0.5348;1.5054;
884.7000;0.5356;1.5079;
885.0000;0.5381;1.5079;
885.3000;0.5397;1.5103;
885.6000;0.5405;1.5224;
885.9000;0.5356;1.5176;
886.2000;0.5364;1.5273;
886.5000;0.5381;1.5273;
886.8000;0.5381;1.5322;
887.1000;0.5372;1.5297;
887.4000;0.5372;1.5224;
887.7000;0.5421;1.5273;
888.0000;0.5372;1.5249;
888.3000;0.5381;1.5297;
888.6000;0.5381;1.5322;
888.9000;0.5397;1.5370;
889.2000;0.5381;1.5297;
889.5000;0.5372;1.5273;
889.8000;0.5381;1.5273;
890.1000;0.5397;1.5249;
890.4000;0.5381;1.5273;
890.7000;0.5381;1.5176;
891.0000;0.5356;1.5127;
891.3000;0.5397;1.5176;
891.6000;0.5421;1.5322;
891.9000;0.5381;1.5152;
892.2000;0.5372;1.5103;
892.5000;0.5372;1.5176;
892.8000;0.5356;1.5273;
893.1000;0.5389;1.5297;
893.4000;0.5356;1.5127;
893.7000;0.5372;1.5103;
894.0000;0.5372;1.5127;
894.3000;0.5356;1.5054;
894.6000;0.5364;1.5006;
894.9000;0.5356;1.5006;
895.2000;0.5364;1.5103;
895.5000;0.5372;1.5079;
895.8000;0.5364;1.5200;
896.1000;0.5397;1.5297;
896.4000;0.5397;1.5249;
896.7000;0.5389;1.5127;
897.0000;0.5405;1.5200;
897.3000;0.5356;1.5079;
897.6000;0.5348;1.4933;
897.9000;0.5340;1.4860;
898.2000;0.5356;1.4836;
898.5000;0.5364;1.4957;
898.8000;0.5364;1.5006;
899.1000;0.5307;1.4933;
899.4000;0.5446;1.5322;
899.7000;0.5372;1.5152;
900.0000;0.5364;1.5103;
900.3000;0.5372;1.5127;
900.6000;0.5397;1.5152;
900.9000;0.5381;1.5127;
901.2000;0.5372;1.5224;
901.5000;0.5389;1.5322;
901.8000;0.5381;1.5346;
902.1000;0.5356;1.5224;
902.4000;0.5364;1.5152;
902.7000;0.5389;1.5297;
903.0000;0.5389;1.5346;
903.3000;0.5364;1.5297;
903.6000;0.5405;1.5419;
903.9000;0.5356;1.5297;
904.2000;0.5364;1.5273;
904.5000;0.5381;1.5249;
904.8000;0.5405;1.5370;
905.1000;0.5364;1.5273;
905.4000;0.5372;1.5322;
905.7000;0.5381;1.5419;
906.0000;0.5381;1.5443;
906.3000;0.5364;1.5419;
906.6000;0.5389;1.5443;
906.9000;0.5389;1.5516;
907.2000;0.5356;1.5394;
907.5000;0.5372;1.5419;
907.8000;0.5340;1.5297;
908.1000;0.5389;1.5346;
908.4000;0.5364;1.5297;
908.7000;0.5356;1.5297;
909.0000;0.5356;1.5249;
909.3000;0.5372;1.5273;
909.6000;0.5372;1.5249;
909.9000;0.5364;1.5152;
910.2000;0.5356;1.5152;
910.5000;0.5381;1.5176;
910.8000;0.5348;1.5103;
911.1000;0.5364;1.5079;
911.4000;0.5381;1.5176;
911.7000;0.5364;1.5249;
912.0000;0.5397;1.5273;
912.3000;0.5397;1.5297;
912.6000;0.5364;1.5200;
912.9000;0.5364;1.5152;
913.2000;0.5332;1.5127;
913.5000;0.5381;1.5224;
913.8000;0.5413;1.5346;
914.1000;0.5356;1.5200;
914.4000;0.5381;1.5200;
914.7000;0.5381;1.5224;
915.0000;0.5372;1.5127;
915.3000;0.5372;1.5152;
915.6000;0.5372;1.5152;
915.9000;0.5381;1.5127;
916.2000;0.5364;1.5152;
916.5000;0.5381;1.5127;
916.8000;0.5381;1.5176;
917.1000;0.5381;1.5200;
917.4000;0.5381;1.5152;
917.7000;0.5356;1.5103;
918.0000;0.5372;1.5127;
918.3000;0.5291;1.5006;
918.6000;0.5397;1.5176;
918.9000;0.5372;1.5176;
919.2000;0.5348;1.5127;
919.5000;0.5364;1.5103;
919.8000;0.5381;1.5176;
920.1000;0.5413;1.5346;
920.4000;0.5340;1.5297;
920.7000;0.5364;1.5273;
921.0000;0.5356;1.5224;
921.3000;0.5381;1.5127;
921.6000;0.5372;1.5152;
921.9000;0.5356;1.5176;
922.2000;0.5364;1.5200;
922.5000;0.5372;1.5176;
922.8000;0.5364;1.5249;
923.1000;0.5356;1.5224;
923.4000;0.5372;1.5176;
923.7000;0.5372;1.5176;
924.0000;0.5372;1.5127;
924.3000;0.5381;1.5224;
924.6000;0.5364;1.5249;
924.9000;0.5381;1.5322;
925.2000;0.5364;1.5322;
925.5000;0.5364;1.5200;
925.8000;0.5372;1.5273;
926.1000;0.5364;1.5176;
926.4000;0.5372;1.5224;
926.7000;0.5372;1.5200;
927.0000;0.5364;1.5152;
927.3000;0.5364;1.5127;
927.6000;0.5381;1.5249;
927.9000;0.5364;1.5224;
928.2000;0.5356;1.5224;
928.5000;0.5381;1.5322;
928.8000;0.5372;1.5273;
929.1000;0.5356;1.5176;
929.4000;0.5340;1.5249;
929.7000;0.5364;1.5224;
930.0000;0.5364;1.5273;
930.3000;0.5356;1.5273;
930.6000;0.5364;1.5224;
930.9000;0.5381;1.5273;
931.2000;0.5381;1.5249;
931.5000;0.5348;1.5200;
931.8000;0.5348;1.5176;
932.1000;0.5340;1.5152;
932.4000;0.5381;1.5152;
932.7000;0.5364;1.5079;
933.0000;0.5389;1.5079;
933.3000;0.5381;1.5054;
933.6000;0.5381;1.5054;
933.9000;0.5372;1.5006;
934.2000;0.5332;1.4957;
934.5000;0.5372;1.5103;
934.8000;0.5356;1.5079;
935.1000;0.5356;1.5152;
935.4000;0.5307;1.5030;
935.7000;0.5332;1.5054;
936.0000;0.5348;1.5079;
936.3000;0.5381;1.5176;
936.6000;0.5307;1.4982;
936.9000;0.5348;1.5152;
937.2000;0.5356;1.5200;
937.5000;0.5364;1.5176;
937.8000;0.5381;1.5224;
938.1000;0.5372;1.5322;
938.4000;0.5356;1.5322;
938.7000;0.5381;1.5297;
939.0000;0.5381;1.5297;
939.3000;0.5381;1.5297;
939.6000;0.5462;1.5589;
939.9000;0.5381;1.5346;
940.2000;0.5381;1.5322;
940.5000;0.5356;1.5224;
940.8000;0.5348;1.5200;
941.1000;0.5364;1.5394;
941.4000;0.5356;1.5443;
941.7000;0.5356;1.5443;
942.0000;0.5356;1.5419;
942.3000;0.5324;1.5346;
942.6000;0.5356;1.5516;
942.9000;0.5364;1.5564;
943.2000;0.5389;1.5516;
943.5000;0.5381;1.5370;
943.8000;0.5381;1.5346;
944.1000;0.5332;1.5249;
944.4000;0.5356;1.5322;
944.7000;0.5356;1.5322;
945.0000;0.5372;1.5297;
945.3000;0.5381;1.5443;
945.6000;0.5372;1.5394;
945.9000;0.5340;1.5394;
946.2000;0.5364;1.5516;
946.5000;0.5462;1.5783;
946.8000;0.5348;1.5540;
947.1000;0.5340;1.5492;
947.4000;0.5340;1.5419;
947.7000;0.5356;1.5492;
948.0000;0.5364;1.5467;
948.3000;0.5356;1.5419;
948.6000;0.5364;1.5443;
948.9000;0.5356;1.5467;
949.2000;0.5372;1.5492;
949.5000;0.5364;1.5467;
949.8000;0.5332;1.5443;
950.1000;0.5372;1.5540;
950.4000;0.5364;1.5516;
950.7000;0.5372;1.5492;
951.0000;0.5324;1.5370;
951.3000;0.5315;1.5322;
951.6000;0.5356;1.5467;
951.9000;0.5315;1.5394;
952.2000;0.5283;1.5249;
952.5000;0.5340;1.5394;
952.8000;0.5372;1.5467;
953.1000;0.5364;1.5467;
953.4000;0.5381;1.5516;
953.7000;0.5356;1.5443;
954.0000;0.5438;1.5564;
954.3000;0.5381;1.5467;
954.6000;0.5364;1.5419;
954.9000;0.5364;1.5394;
955.2000;0.5356;1.5419;
955.5000;0.5364;1.5394;
955.8000;0.5340;1.5394;
956.1000;0.5356;1.5394;
956.4000;0.5340;1.5322;
956.7000;0.5348;1.5322;
957.0000;0.5356;1.5322;
957.3000;0.5364;1.5346;
957.6000;0.5348;1.5346;
957.9000;0.5348;1.5370;
958.2000;0.5348;1.5370;
958.5000;0.5348;1.5419;
958.8000;0.5356;1.5419;
959.1000;0.5356;1.5492;
959.4000;0.5372;1.5540;
959.7000;0.5372;1.5540;
960.0000;0.5364;1.5516;
960.3000;0.5348;1.5467;
960.6000;0.5421;1.5686;
960.9000;0.5405;1.5613;
961.2000;0.5307;1.5419;
961.5000;0.5348;1.5516;
961.8000;0.5372;1.5613;
962.1000;0.5356;1.5564;
962.4000;0.5364;1.5540;
962.7000;0.5348;1.5589;
963.0000;0.5356;1.5613;
963.3000;0.5364;1.5564;
963.6000;0.5397;1.5710;
963.9000;0.5364;1.5637;
964.2000;0.5364;1.5613;
964.5000;0.5421;1.5856;
964.8000;0.5364;1.5759;
965.1000;0.5397;1.5734;
965.4000;0.5348;1.5686;
965.7000;0.5356;1.5710;
966.0000;0.5372;1.5661;
966.3000;0.5324;1.5467;
966.6000;0.5356;1.5613;
966.9000;0.5356;1.5661;
967.2000;0.5364;1.5661;
967.5000;0.5372;1.5686;
967.8000;0.5364;1.5637;
968.1000;0.5356;1.5492;
968.4000;0.5372;1.5516;
968.7000;0.5356;1.5540;
969.0000;0.5446;1.5637;
969.3000;0.5356;1.5394;
969.6000;0.5356;1.5394;
969.9000;0.5381;1.5467;
970.2000;0.5405;1.5540;
970.5000;0.5340;1.5394;
970.8000;0.5389;1.5467;
971.1000;0.5372;1.5516;
971.4000;0.5356;1.5394;
971.7000;0.5364;1.5370;
972.0000;0.5324;1.5176;
972.3000;0.5332;1.5346;
972.6000;0.5381;1.5540;
972.9000;0.5381;1.5564;
973.2000;0.5356;1.5419;
973.5000;0.5364;1.5516;
973.8000;0.5348;1.5419;
974.1000;0.5413;1.5467;
974.4000;0.5356;1.5346;
974.7000;0.5364;1.5370;
975.0000;0.5364;1.5346;
975.3000;0.5381;1.5370;
975.6000;0.5340;1.5370;
975.9000;0.5372;1.5370;
976.2000;0.5372;1.5273;
976.5000;0.5332;1.5176;
976.8000;0.5340;1.5127;
977.1000;0.5381;1.5176;
977.4000;0.5364;1.5200;
977.7000;0.5364;1.5200;
978.0000;0.5389;1.5176;
978.3000;0.5348;1.5127;
978.6000;0.5356;1.5127;
978.9000;0.5389;1.5224;
979.2000;0.5348;1.5200;
979.5000;0.5372;1.5224;
979.8000;0.5364;1.5152;
980.1000;0.5348;1.5152;
980.4000;0.5340;1.5152;
980.7000;0.5356;1.5200;
981.0000;0.5372;1.5249;
981.3000;0.5348;1.5273;
981.6000;0.5348;1.5273;
981.9000;0.5356;1.5200;
982.2000;0.5372;1.5322;
982.5000;0.5372;1.5370;
982.8000;0.5348;1.5297;
983.1000;0.5356;1.5297;
983.4000;0.5324;1.5297;
983.7000;0.5340;1.5322;
984.0000;0.5356;1.5346;
984.3000;0.5299;1.5200;
984.6000;0.5332;1.5249;
984.9000;0.5348;1.5370;
985.2000;0.5356;1.5394;
985.5000;0.5356;1.5516;
985.8000;0.5356;1.5492;
986.1000;0.5340;1.5346;
986.4000;0.5348;1.5322;
986.7000;0.5340;1.5297;
987.0000;0.5348;1.5224;
987.3000;0.5356;1.5103;
987.6000;0.5340;1.5103;
987.9000;0.5356;1.5224;
988.2000;0.5356;1.5249;
988.5000;0.5324;1.5127;
988.8000;0.5348;1.5127;
989.1000;0.5340;1.5224;
989.4000;0.5348;1.5297;
989.7000;0.5348;1.5322;
990.0000;0.5364;1.5467;
990.3000;0.5348;1.5394;
990.6000;0.5372;1.5322;
990.9000;0.5340;1.5297;
991.2000;0.5332;1.5273;
991.5000;0.5348;1.5273;
991.8000;0.5356;1.5370;
992.1000;0.5389;1.5419;
992.4000;0.5348;1.5322;
992.7000;0.5364;1.5394;
993.0000;0.5348;1.5273;
993.3000;0.5348;1.5273;
993.6000;0.5348;1.5346;
993.9000;0.5348;1.5394;
994.2000;0.5356;1.5370;
994.5000;0.5348;1.5297;
994.8000;0.5356;1.5297;
995.1000;0.5348;1.5346;
995.4000;0.5372;1.5370;
995.7000;0.5356;1.5370;
996.0000;0.5348;1.5249;
996.3000;0.5348;1.5176;
996.6000;0.5364;1.5224;
996.9000;0.5364;1.5200;
997.2000;0.5356;1.5079;
997.5000;0.5348;1.5152;
997.8000;0.5275;1.4982;
998.1000;0.5340;1.5224;
998.4000;0.5356;1.5224;
998.7000;0.5348;1.5297;
999.0000;0.5315;1.5273;
999.3000;0.5340;1.5394;
999.6000;0.5340;1.5346;
999.9000;0.5291;1.5176;
1000.2000;0.5364;1.5370;
1000.5000;0.5356;1.5394;
1000.8000;0.5299;1.5249;
1001.1000;0.5348;1.5346;
1001.4000;0.5364;1.5322;
1001.7000;0.5381;1.5370;
1002.0000;0.5332;1.5322;
1002.3000;0.5307;1.5224;
1002.6000;0.5348;1.5297;
1002.9000;0.5356;1.5297;
1003.2000;0.5364;1.5273;
1003.5000;0.5356;1.5200;
1003.8000;0.5348;1.5224;
1004.1000;0.5348;1.5297;
1004.4000;0.5332;1.5297;
1004.7000;0.5340;1.5322;
1005.0000;0.5348;1.5346;
1005.3000;0.5348;1.5346;
1005.6000;0.5324;1.5273;
1005.9000;0.5364;1.5322;
1006.2000;0.5348;1.5419;
1006.5000;0.5364;1.5443;
1006.8000;0.5340;1.5346;
1007.1000;0.5340;1.5394;
1007.4000;0.5348;1.5346;
1007.7000;0.5340;1.5346;
1008.0000;0.5372;1.5467;
1008.3000;0.5340;1.5346;
1008.6000;0.5340;1.5273;
1008.9000;0.5340;1.5249;
1009.2000;0.5340;1.5297;
1009.5000;0.5348;1.5297;
1009.8000;0.5332;1.5322;
1010.1000;0.5340;1.5249;
1010.4000;0.5324;1.5200;
1010.7000;0.5340;1.5224;
1011.0000;0.5332;1.5273;
1011.3000;0.5348;1.5322;
1011.6000;0.5356;1.5224;
1011.9000;0.5332;1.5176;
1012.2000;0.5283;1.5054;
1012.5000;0.5364;1.5322;
1012.8000;0.5332;1.5346;
1013.1000;0.5356;1.5394;
1013.4000;0.5389;1.5516;
1013.7000;0.5340;1.5443;
1014.0000;0.5372;1.5443;
1014.3000;0.5348;1.5346;
1014.6000;0.5348;1.5273;
1014.9000;0.5340;1.5224;
1015.2000;0.5421;1.5443;
1015.5000;0.5299;1.5054;
1015.8000;0.5364;1.5200;
1016.1000;0.5356;1.5176;
1016.4000;0.5372;1.5127;
1016.7000;0.5348;1.5054;
1017.0000;0.5372;1.5200;
1017.3000;0.5364;1.5322;
1017.6000;0.5364;1.5394;
1017.9000;0.5348;1.5443;
1018.2000;0.5348;1.5370;
1018.5000;0.5364;1.5419;
1018.8000;0.5364;1.5273;
1019.1000;0.5381;1.5249;
1019.4000;0.5340;1.5200;
1019.7000;0.5348;1.5273;
1020.0000;0.5340;1.5249;
1020.3000;0.5340;1.5249;
1020.6000;0.5340;1.5200;
1020.9000;0.5332;1.5103;
1021.2000;0.5299;1.5176;
1021.5000;0.5348;1.5249;
1021.8000;0.5356;1.5297;
1022.1000;0.5356;1.5273;
1022.4000;0.5372;1.5273;
1022.7000;0.5356;1.5176;
1023.0000;0.5348;1.5200;
1023.3000;0.5332;1.5200;
1023.6000;0.5348;1.5127;
1023.9000;0.5356;1.5127;
1024.2000;0.5348;1.5127;
1024.5000;0.5356;1.5176;
1024.8000;0.5348;1.5200;
1025.1000;0.5348;1.5127;
1025.4000;0.5348;1.5079;
1025.7000;0.5332;1.5127;
1026.0000;0.5348;1.5152;
1026.3000;0.5356;1.5079;
1026.6000;0.5356;1.4982;
1026.9000;0.5356;1.4957;
1027.2000;0.5348;1.5079;
1027.5000;0.5356;1.5054;
1027.8000;0.5340;1.4957;
1028.1000;0.5340;1.5030;
1028.4000;0.5332;1.5006;
1028.7000;0.5348;1.5006;
1029.0000;0.5324;1.5030;
1029.3000;0.5356;1.5054;
1029.6000;0.5348;1.5079;
1029.9000;0.5348;1.5103;
1030.2000;0.5340;1.4982;
1030.5000;0.5348;1.5006;
1030.8000;0.5356;1.5079;
1031.1000;0.5348;1.5054;
1031.4000;0.5356;1.5103;
1031.7000;0.5348;1.5152;
1032.0000;0.5340;1.5103;
1032.3000;0.5348;1.5103;
1032.6000;0.5348;1.5054;
1032.9000;0.5332;1.5079;
1033.2000;0.5389;1.5152;
1033.5000;0.5356;1.5127;
1033.8000;0.5340;1.5054;
1034.1000;0.5340;1.5054;
1034.4000;0.5389;1.5249;
1034.7000;0.5332;1.5176;
1035.0000;0.5340;1.5200;
1035.3000;0.5307;1.5176;
1035.6000;0.5340;1.5176;
1035.9000;0.5324;1.5079;
1036.2000;0.5340;1.5127;
1036.5000;0.5332;1.5079;
1036.8000;0.5397;1.5200;
1037.1000;0.5340;1.5152;
1037.4000;0.5356;1.5249;
1037.7000;0.5332;1.5249;
1038.0000;0.5340;1.5224;
1038.3000;0.5332;1.5224;
1038.6000;0.5332;1.5224;
1038.9000;0.5348;1.5224;
1039.2000;0.5348;1.5200;
1039.5000;0.5356;1.5273;
1039.8000;0.5283;1.5127;
1040.1000;0.5340;1.5249;
1040.4000;0.5332;1.5224;
1040.7000;0.5348;1.5224;
1041.0000;0.5340;1.5273;
1041.3000;0.5324;1.5249;
1041.6000;0.5348;1.5297;
1041.9000;0.5340;1.5297;
1042.2000;0.5340;1.5249;
1042.5000;0.5348;1.5346;
1042.8000;0.5356;1.5394;
1043.1000;0.5348;1.5370;
1043.4000;0.5348;1.5394;
1043.7000;0.5348;1.5467;
1044.0000;0.5364;1.5467;
1044.3000;0.5372;1.5516;
1044.6000;0.5340;1.5443;
1044.9000;0.5389;1.5516;
1045.2000;0.5332;1.5322;
1045.5000;0.5340;1.5346;
1045.8000;0.5324;1.5346;
1046.1000;0.5348;1.5297;
1046.4000;0.5348;1.5394;
1046.7000;0.5340;1.5370;
1047.0000;0.5348;1.5322;
1047.3000;0.5348;1.5297;
1047.6000;0.5340;1.5224;
1047.9000;0.5356;1.5224;
1048.2000;0.5332;1.5176;
1048.5000;0.5348;1.5200;
1048.8000;0.5340;1.5224;
1049.1000;0.5340;1.5297;
1049.4000;0.5364;1.5273;
1049.7000;0.5340;1.5224;
1050.0000;0.5324;1.5273;
1050.3000;0.5348;1.5249;
1050.6000;0.5348;1.5273;
1050.9000;0.5356;1.5322;
1051.2000;0.5340;1.5273;
1051.5000;0.5348;1.5224;
1051.8000;0.5348;1.5224;
1052.1000;0.5332;1.5249;
1052.4000;0.5340;1.5224;
1052.7000;0.5348;1.5224;
1053.0000;0.5348;1.5249;
1053.3000;0.5299;1.5176;
1053.6000;0.5332;1.5297;
1053.9000;0.5340;1.5346;
1054.2000;0.5348;1.5249;
1054.5000;0.5348;1.5152;
1054.8000;0.5332;1.5224;
1055.1000;0.5332;1.5176;
1055.4000;0.5340;1.5200;
1055.7000;0.5340;1.5224;
1056.0000;0.5332;1.5200;
1056.3000;0.5340;1.5249;
1056.6000;0.5332;1.5249;
1056.9000;0.5340;1.5297;
1057.2000;0.5315;1.5249;
1057.5000;0.5332;1.5249;
1057.8000;0.5340;1.5273;
1058.1000;0.5348;1.5224;
1058.4000;0.5324;1.5127;
1058.7000;0.5348;1.5152;
1059.0000;0.5283;1.5054;
1059.3000;0.5332;1.5224;
1059.6000;0.5348;1.5176;
1059.9000;0.5348;1.5103;
1060.2000;0.5340;1.5079;
1060.5000;0.5340;1.5127;
1060.8000;0.5348;1.5176;
1061.1000;0.5340;1.5200;
1061.4000;0.5356;1.5297;
1061.7000;0.5348;1.5370;
1062.0000;0.5381;1.5419;
1062.3000;0.5348;1.5443;
1062.6000;0.5348;1.5467;
1062.9000;0.5340;1.5492;
1063.2000;0.5348;1.5540;
1063.5000;0.5356;1.5540;
1063.8000;0.5364;1.5540;
1064.1000;0.5340;1.5467;
1064.4000;0.5356;1.5443;
1064.7000;0.5356;1.5394;
1065.0000;0.5356;1.5224;
1065.3000;0.5340;1.5079;
1065.6000;0.5340;1.5030;
1065.9000;0.5397;1.5249;
1066.2000;0.5340;1.5200;
1066.5000;0.5332;1.5346;
1066.8000;0.5340;1.5419;
1067.1000;0.5340;1.5346;
1067.4000;0.5348;1.5370;
1067.7000;0.5372;1.5394;
1068.0000;0.5332;1.5346;
1068.3000;0.5340;1.5370;
1068.6000;0.5348;1.5394;
1068.9000;0.5332;1.5346;
1069.2000;0.5340;1.5322;
1069.5000;0.5332;1.5249;
1069.8000;0.5340;1.5322;
1070.1000;0.5340;1.5297;
1070.4000;0.5324;1.5249;
1070.7000;0.5421;1.5467;
1071.0000;0.5299;1.5127;
1071.3000;0.5364;1.5176;
1071.6000;0.5340;1.5176;
1071.9000;0.5348;1.5127;
1072.2000;0.5348;1.5200;
1072.5000;0.5348;1.5079;
1072.8000;0.5267;1.4933;
1073.1000;0.5364;1.5200;
1073.4000;0.5348;1.5176;
1073.7000;0.5348;1.5200;
1074.0000;0.5348;1.5224;
1074.3000;0.5324;1.5200;
1074.6000;0.5332;1.5249;
1074.9000;0.5348;1.5273;
1075.2000;0.5372;1.5322;
1075.5000;0.5348;1.5176;
1075.8000;0.5299;1.5127;
1076.1000;0.5332;1.5273;
1076.4000;0.5372;1.5346;
1076.7000;0.5340;1.5273;
1077.0000;0.5332;1.5273;
1077.3000;0.5348;1.5273;
1077.6000;0.5348;1.5297;
1077.9000;0.5332;1.5322;
1078.2000;0.5372;1.5419;
1078.5000;0.5340;1.5394;
1078.8000;0.5340;1.5443;
1079.1000;0.5324;1.5322;
1079.4000;0.5348;1.5297;
1079.7000;0.5340;1.5224;
1080.0000;0.5332;1.5200;
1080.3000;0.5348;1.5152;
1080.6000;0.5332;1.5224;
1080.9000;0.5332;1.5224;
1081.2000;0.5356;1.5249;
1081.5000;0.5356;1.5249;
1081.8000;0.5348;1.5224;
1082.1000;0.5324;1.5176;
1082.4000;0.5324;1.5176;
1082.7000;0.5340;1.5200;
1083.0000;0.5356;1.5249;
1083.3000;0.5340;1.5127;
1083.6000;0.5340;1.5249;
1083.9000;0.5356;1.5200;
1084.2000;0.5324;1.5176;
1084.5000;0.5356;1.5224;
1084.8000;0.5356;1.5249;
1085.1000;0.5315;1.5079;
1085.4000;0.5348;1.5200;
1085.7000;0.5348;1.5273;
1086.0000;0.5397;1.5443;
1086.3000;0.5356;1.5419;
1086.6000;0.5356;1.5492;
1086.9000;0.5340;1.5492;
1087.2000;0.5299;1.5467;
1087.5000;0.5348;1.5613;
1087.8000;0.5364;1.5613;
1088.1000;0.5332;1.5540;
1088.4000;0.5340;1.5516;
1088.7000;0.5332;1.5613;
1089.0000;0.5332;1.5564;
1089.3000;0.5348;1.5613;
1089.6000;0.5332;1.5613;
1089.9000;0.5315;1.5564;
1090.2000;0.5340;1.5564;
1090.5000;0.5340;1.5443;
1090.8000;0.5340;1.5394;
1091.1000;0.5315;1.5370;
1091.4000;0.5348;1.5394;
1091.7000;0.5348;1.5516;
1092.0000;0.5324;1.5467;
1092.3000;0.5332;1.5492;
1092.6000;0.5332;1.5443;
1092.9000;0.5315;1.5273;
1093.2000;0.5307;1.5249;
1093.5000;0.5324;1.5322;
1093.8000;0.5340;1.5419;
1094.1000;0.5340;1.5443;
1094.4000;0.5307;1.5297;
1094.7000;0.5340;1.5249;
1095.0000;0.5324;1.5176;
1095.3000;0.5348;1.5224;
1095.6000;0.5340;1.5297;
1095.9000;0.5332;1.5322;
1096.2000;0.5332;1.5346;
1096.5000;0.5348;1.5443;
1096.8000;0.5348;1.5394;
1097.1000;0.5348;1.5346;
1097.4000;0.5307;1.5200;
1097.7000;0.5340;1.5176;
1098.0000;0.5340;1.5249;
1098.3000;0.5332;1.5297;
1098.6000;0.5348;1.5394;
1098.9000;0.5332;1.5419;
1099.2000;0.5364;1.5394;
1099.5000;0.5348;1.5249;
1099.8000;0.5275;1.5054;
1100.1000;0.5332;1.5176;
1100.4000;0.5324;1.5224;
1100.7000;0.5340;1.5297;
1101.0000;0.5332;1.5297;
1101.3000;0.5332;1.5273;
1101.6000;0.5332;1.5200;
1101.9000;0.5340;1.5224;
1102.2000;0.5332;1.5224;
1102.5000;0.5332;1.5224;
1102.8000;0.5324;1.5297;
1103.1000;0.5332;1.5346;
1103.4000;0.5356;1.5443;
1103.7000;0.5332;1.5370;
1104.0000;0.5324;1.5346;
1104.3000;0.5348;1.5394;
1104.6000;0.5332;1.5370;
1104.9000;0.5340;1.5419;
1105.2000;0.5348;1.5467;
1105.5000;0.5356;1.5516;
1105.8000;0.5332;1.5443;
1106.1000;0.5348;1.5443;
1106.4000;0.5348;1.5516;
1106.7000;0.5324;1.5516;
1107.0000;0.5291;1.5419;
1107.3000;0.5283;1.5419;
1107.6000;0.5324;1.5443;
1107.9000;0.5324;1.5443;
1108.2000;0.5340;1.5443;
1108.5000;0.5283;1.5224;
1108.8000;0.5324;1.5273;
1109.1000;0.5340;1.5346;
1109.4000;0.5340;1.5297;
1109.7000;0.5348;1.5322;
1110.0000;0.5348;1.5297;
1110.3000;0.5332;1.5249;
1110.6000;0.5348;1.5297;
1110.9000;0.5348;1.5346;
1111.2000;0.5356;1.5322;
1111.5000;0.5332;1.5297;
1111.8000;0.5332;1.5273;
1112.1000;0.5340;1.5273;
1112.4000;0.5340;1.5297;
1112.7000;0.5332;1.5297;
1113.0000;0.5340;1.5346;
1113.3000;0.5332;1.5297;
1113.6000;0.5315;1.5249;
1113.9000;0.5324;1.5297;
1114.2000;0.5324;1.5297;
1114.5000;0.5348;1.5419;
1114.8000;0.5340;1.5346;
1115.1000;0.5332;1.5322;
1115.4000;0.5348;1.5370;
1115.7000;0.5340;1.5394;
1116.0000;0.5340;1.5467;
1116.3000;0.5332;1.5516;
1116.6000;0.5340;1.5467;
1116.9000;0.5340;1.5467;
1117.2000;0.5340;1.5443;
1117.5000;0.5324;1.5419;
1117.8000;0.5348;1.5492;
1118.1000;0.5340;1.5443;
1118.4000;0.5356;1.5492;
1118.7000;0.5340;1.5492;
1119.0000;0.5405;1.5686;
1119.3000;0.5332;1.5492;
1119.6000;0.5348;1.5467;
1119.9000;0.5356;1.5394;
1120.2000;0.5348;1.5346;
1120.5000;0.5348;1.5346;
1120.8000;0.5340;1.5419;
1121.1000;0.5340;1.5492;
1121.4000;0.5340;1.5564;
1121.7000;0.5413;1.5759;
1122.0000;0.5348;1.5516;
1122.3000;0.5356;1.5613;
1122.6000;0.5324;1.5516;
1122.9000;0.5332;1.5492;
1123.2000;0.5364;1.5516;
1123.5000;0.5340;1.5492;
1123.8000;0.5348;1.5394;
1124.1000;0.5340;1.5394;
1124.4000;0.5340;1.5467;
1124.7000;0.5340;1.5516;
1125.0000;0.5340;1.5467;
1125.3000;0.5332;1.5346;
1125.6000;0.5324;1.5297;
1125.9000;0.5324;1.5370;
1126.2000;0.5324;1.5394;
1126.5000;0.5348;1.5394;
1126.8000;0.5324;1.5346;
1127.1000;0.5348;1.5419;
1127.4000;0.5324;1.5419;
1127.7000;0.5332;1.5419;
1128.0000;0.5307;1.5443;
1128.3000;0.5340;1.5516;
1128.6000;0.5340;1.5467;
1128.9000;0.5340;1.5443;
1129.2000;0.5332;1.5297;
1129.5000;0.5291;1.5249;
1129.8000;0.5324;1.5394;
1130.1000;0.5348;1.5419;
1130.4000;0.5315;1.5346;
1130.7000;0.5299;1.5346;
1131.0000;0.5381;1.5540;
1131.3000;0.5250;1.5224;
1131.6000;0.5332;1.5370;
1131.9000;0.5332;1.5322;
1132.2000;0.5299;1.5370;
1132.5000;0.5315;1.5492;
1132.8000;0.5397;1.5686;
1133.1000;0.5315;1.5516;
1133.4000;0.5332;1.5492;
1133.7000;0.5332;1.5564;
1134.0000;0.5332;1.5516;
1134.3000;0.5315;1.5492;
1134.6000;0.5332;1.5516;
1134.9000;0.5324;1.5516;
1135.2000;0.5332;1.5589;
1135.5000;0.5340;1.5540;
1135.8000;0.5332;1.5467;
1136.1000;0.5389;1.5613;
1136.4000;0.5356;1.5492;
1136.7000;0.5340;1.5467;
1137.0000;0.5356;1.5467;
1137.3000;0.5307;1.5346;
1137.6000;0.5356;1.5394;
1137.9000;0.5348;1.5346;
1138.2000;0.5348;1.5249;
1138.5000;0.5348;1.5346;
1138.8000;0.5340;1.5273;
1139.1000;0.5348;1.5297;
1139.4000;0.5340;1.5297;
1139.7000;0.5340;1.5370;
1140.0000;0.5340;1.5467;
1140.3000;0.5372;1.5516;
1140.6000;0.5324;1.5370;
1140.9000;0.5364;1.5492;
1141.2000;0.5332;1.5394;
1141.5000;0.5332;1.5394;
1141.8000;0.5324;1.5346;
1142.1000;0.5324;1.5273;
1142.4000;0.5332;1.5273;
1142.7000;0.5421;1.5492;
1143.0000;0.5348;1.5297;
1143.3000;0.5348;1.5249;
1143.6000;0.5332;1.5249;
1143.9000;0.5348;1.5297;
1144.2000;0.5324;1.5322;
1144.5000;0.5348;1.5443;
1144.8000;0.5348;1.5492;
1145.1000;0.5332;1.5419;
1145.4000;0.5421;1.5613;
1145.7000;0.5356;1.5419;
1146.0000;0.5307;1.5322;
1146.3000;0.5340;1.5394;
1146.6000;0.5364;1.5394;
1146.9000;0.5332;1.5273;
1147.2000;0.5332;1.5322;
1147.5000;0.5332;1.5370;
1147.8000;0.5324;1.5394;
1148.1000;0.5348;1.5443;
1148.4000;0.5315;1.5297;
1148.7000;0.5413;1.5589;
1149.0000;0.5332;1.5516;
1149.3000;0.5324;1.5467;
1149.6000;0.5324;1.5370;
1149.9000;0.5324;1.5273;
1150.2000;0.5348;1.5297;
1150.5000;0.5332;1.5322;
1150.8000;0.5332;1.5297;
1151.1000;0.5315;1.5322;
1151.4000;0.5348;1.5419;
1151.7000;0.5348;1.5370;
1152.0000;0.5332;1.5394;
1152.3000;0.5332;1.5394;
1152.6000;0.5324;1.5443;
1152.9000;0.5340;1.5540;
1153.2000;0.5340;1.5564;
1153.5000;0.5340;1.5467;
1153.8000;0.5332;1.5492;
1154.1000;0.5348;1.5564;
1154.4000;0.5340;1.5564;
1154.7000;0.5340;1.5492;
1155.0000;0.5340;1.5370;
1155.3000;0.5315;1.5224;
1155.6000;0.5332;1.5322;
1155.9000;0.5389;1.5492;
1156.2000;0.5324;1.5394;
1156.5000;0.5324;1.5346;
1156.8000;0.5324;1.5322;
1157.1000;0.5315;1.5419;
1157.4000;0.5332;1.5419;
1157.7000;0.5340;1.5322;
1158.0000;0.5332;1.5394;
1158.3000;0.5332;1.5346;
1158.6000;0.5348;1.5370;
1158.9000;0.5307;1.5370;
1159.2000;0.5283;1.5394;
1159.5000;0.5307;1.5516;
1159.8000;0.5340;1.5540;
1160.1000;0.5389;1.5637;
1160.4000;0.5315;1.5419;
1160.7000;0.5340;1.5443;
1161.0000;0.5315;1.5492;
1161.3000;0.5324;1.5443;
1161.6000;0.5340;1.5467;
1161.9000;0.5348;1.5443;
1162.2000;0.5340;1.5346;
1162.5000;0.5332;1.5249;
1162.8000;0.5332;1.5249;
1163.1000;0.5348;1.5322;
1163.4000;0.5324;1.5297;
1163.7000;0.5332;1.5297;
1164.0000;0.5348;1.5394;
1164.3000;0.5348;1.5467;
1164.6000;0.5348;1.5394;
1164.9000;0.5348;1.5370;
1165.2000;0.5332;1.5322;
1165.5000;0.5324;1.5419;
1165.8000;0.5324;1.5394;
1166.1000;0.5340;1.5346;
1166.4000;0.5324;1.5370;
1166.7000;0.5332;1.5443;
1167.0000;0.5324;1.5516;
1167.3000;0.5315;1.5443;
1167.6000;0.5324;1.5492;
1167.9000;0.5332;1.5492;
1168.2000;0.5356;1.5492;
1168.5000;0.5332;1.5467;
1168.8000;0.5340;1.5443;
1169.1000;0.5332;1.5346;
1169.4000;0.5299;1.5200;
1169.7000;0.5324;1.5273;
1170.0000;0.5315;1.5249;
1170.3000;0.5348;1.5370;
1170.6000;0.5405;1.5613;
1170.9000;0.5340;1.5419;
1171.2000;0.5348;1.5443;
1171.5000;0.5324;1.5370;
1171.8000;0.5315;1.5370;
1172.1000;0.5332;1.5249;
1172.4000;0.5332;1.5273;
1172.7000;0.5324;1.5273;
1173.0000;0.5372;1.5370;
1173.3000;0.5340;1.5249;
1173.6000;0.5340;1.5249;
1173.9000;0.5332;1.5224;
1174.2000;0.5324;1.5176;
1174.5000;0.5340;1.5176;
1174.8000;0.5340;1.5224;
1175.1000;0.5324;1.5152;
1175.4000;0.5348;1.5249;
1175.7000;0.5348;1.5224;
1176.0000;0.5356;1.5273;
1176.3000;0.5348;1.5273;
1176.6000;0.5324;1.5224;
1176.9000;0.5332;1.5346;
1177.2000;0.5340;1.5370;
1177.5000;0.5356;1.5346;
1177.8000;0.5332;1.5273;
1178.1000;0.5332;1.5249;
1178.4000;0.5340;1.5322;
1178.7000;0.5340;1.5249;
1179.0000;0.5364;1.5346;
1179.3000;0.5324;1.5249;
1179.6000;0.5332;1.5176;
1179.9000;0.5340;1.5249;
1180.2000;0.5332;1.5297;
1180.5000;0.5332;1.5370;
1180.8000;0.5315;1.5370;
1181.1000;0.5283;1.5200;
1181.4000;0.5332;1.5346;
1181.7000;0.5307;1.5224;
1182.0000;0.5356;1.5419;
1182.3000;0.5340;1.5346;
1182.6000;0.5340;1.5273;
1182.9000;0.5332;1.5249;
1183.2000;0.5307;1.5176;
1183.5000;0.5324;1.5127;
1183.8000;0.5348;1.5176;
1184.1000;0.5348;1.5176;
1184.4000;0.5340;1.5224;
1184.7000;0.5340;1.5249;
1185.0000;0.5291;1.5127;
1185.3000;0.5348;1.5322;
1185.6000;0.5356;1.5297;
1185.9000;0.5438;1.5492;
1186.2000;0.5315;1.5273;
1186.5000;0.5332;1.5346;
1186.8000;0.5348;1.5346;
1187.1000;0.5389;1.5443;
1187.4000;0.5315;1.5249;
1187.7000;0.5340;1.5394;
1188.0000;0.5332;1.5370;
1188.3000;0.5340;1.5370;
1188.6000;0.5348;1.5297;
1188.9000;0.5348;1.5297;
1189.2000;0.5348;1.5273;
1189.5000;0.5324;1.5224;
1189.8000;0.5340;1.5273;
1190.1000;0.5348;1.5273;
1190.4000;0.5340;1.5297;
1190.7000;0.5332;1.5322;
1191.0000;0.5307;1.5297;
1191.3000;0.5315;1.5394;
1191.6000;0.5324;1.5346;
1191.9000;0.5340;1.5370;
1192.2000;0.5324;1.5346;
1192.5000;0.5381;1.5394;
1192.8000;0.5348;1.5200;
1193.1000;0.5324;1.5200;
1193.4000;0.5332;1.5127;
1193.7000;0.5324;1.5103;
1194.0000;0.5340;1.5127;
1194.3000;0.5324;1.5200;
1194.6000;0.5307;1.5249;
1194.9000;0.5332;1.5273;
1195.2000;0.5315;1.5249;
1195.5000;0.5332;1.5297;
1195.8000;0.5372;1.5322;
1196.1000;0.5324;1.5224;
1196.4000;0.5324;1.5224;
1196.7000;0.5332;1.5273;
1197.0000;0.5348;1.5322;
1197.3000;0.5324;1.5273;
1197.6000;0.5340;1.5249;
1197.9000;0.5348;1.5346;
1198.2000;0.5340;1.5394;
1198.5000;0.5348;1.5370;
1198.8000;0.5332;1.5322;
1199.1000;0.5307;1.5322;
1199.4000;0.5340;1.5419;
1199.7000;0.5332;1.5419;
1200.0000;0.5348;1.5467;
1200.3000;0.5364;1.5564;
1200.6000;0.5348;1.5564;
1200.9000;0.5324;1.5516;
1201.2000;0.5299;1.5419;
1201.5000;0.5307;1.5394;
1201.8000;0.5332;1.5370;
1202.1000;0.5348;1.5394;
1202.4000;0.5315;1.5273;
1202.7000;0.5332;1.5297;
1203.0000;0.5307;1.5322;
1203.3000;0.5332;1.5394;
1203.6000;0.5332;1.5443;
1203.9000;0.5307;1.5346;
1204.2000;0.5340;1.5346;
1204.5000;0.5340;1.5419;
1204.8000;0.5332;1.5346;
1205.1000;0.5397;1.5516;
1205.4000;0.5332;1.5443;
1205.7000;0.5324;1.5467;
1206.0000;0.5332;1.5443;
1206.3000;0.5315;1.5394;
1206.6000;0.5332;1.5467;
1206.9000;0.5340;1.5443;
1207.2000;0.5348;1.5492;
1207.5000;0.5324;1.5516;
1207.8000;0.5324;1.5516;
1208.1000;0.5332;1.5516;
1208.4000;0.5340;1.5516;
1208.7000;0.5324;1.5443;
1209.0000;0.5332;1.5370;
1209.3000;0.5250;1.5103;
1209.6000;0.5340;1.5370;
1209.9000;0.5299;1.5249;
1210.2000;0.5315;1.5322;
1210.5000;0.5299;1.5346;
1210.8000;0.5348;1.5492;
1211.1000;0.5250;1.5273;
1211.4000;0.5315;1.5419;
1211.7000;0.5324;1.5370;
1212.0000;0.5324;1.5370;
1212.3000;0.5332;1.5322;
1212.6000;0.5324;1.5322;
1212.9000;0.5307;1.5322;
1213.2000;0.5324;1.5394;
1213.5000;0.5324;1.5419;
1213.8000;0.5324;1.5394;
1214.1000;0.5332;1.5297;
1214.4000;0.5332;1.5370;
1214.7000;0.5332;1.5419;
1215.0000;0.5307;1.5346;
1215.3000;0.5299;1.5322;
1215.6000;0.5364;1.5346;
1215.9000;0.5413;1.5467;
1216.2000;0.5324;1.5297;
1216.5000;0.5332;1.5346;
1216.8000;0.5324;1.5224;
1217.1000;0.5291;1.5224;
1217.4000;0.5332;1.5224;
1217.7000;0.5324;1.5200;
1218.0000;0.5324;1.5200;
1218.3000;0.5348;1.5249;
1218.6000;0.5348;1.5322;
1218.9000;0.5275;1.5273;
1219.2000;0.5226;1.5127;
1219.5000;0.5332;1.5370;
1219.8000;0.5315;1.5419;
1220.1000;0.5291;1.5370;
1220.4000;0.5332;1.5370;
1220.7000;0.5332;1.5297;
1221.0000;0.5307;1.5297;
1221.3000;0.5332;1.5273;
1221.6000;0.5332;1.5200;
1221.9000;0.5340;1.5200;
1222.2000;0.5324;1.5200;
1222.5000;0.5356;1.5273;
1222.8000;0.5389;1.5322;
1223.1000;0.5299;1.5224;
1223.4000;0.5291;1.5176;
1223.7000;0.5340;1.5224;
1224.0000;0.5421;1.5322;
1224.3000;0.5267;1.5006;
1224.6000;0.5364;1.5224;
1224.9000;0.5332;1.5200;
1225.2000;0.5332;1.5224;
1225.5000;0.5299;1.5152;
1225.8000;0.5283;1.5079;
1226.1000;0.5332;1.5224;
1226.4000;0.5340;1.5273;
1226.7000;0.5348;1.5224;
1227.0000;0.5332;1.5152;
1227.3000;0.5364;1.5200;
1227.6000;0.5340;1.5152;
1227.9000;0.5356;1.5200;
1228.2000;0.5340;1.5249;
1228.5000;0.5348;1.5200;
1228.8000;0.5324;1.5200;
1229.1000;0.5332;1.5249;
1229.4000;0.5340;1.5322;
1229.7000;0.5332;1.5249;
1230.0000;0.5332;1.5249;
1230.3000;0.5364;1.5370;
1230.6000;0.5307;1.5297;
1230.9000;0.5324;1.5297;
1231.2000;0.5332;1.5249;
1231.5000;0.5332;1.5249;
1231.8000;0.5324;1.5249;
1232.1000;0.5332;1.5224;
1232.4000;0.5332;1.5224;
1232.7000;0.5332;1.5273;
1233.0000;0.5332;1.5297;
1233.3000;0.5324;1.5273;
1233.6000;0.5332;1.5273;
1233.9000;0.5332;1.5249;
1234.2000;0.5315;1.5394;
1234.5000;0.5324;1.5394;
1234.8000;0.5356;1.5419;
1235.1000;0.5340;1.5346;
1235.4000;0.5340;1.5419;
1235.7000;0.5340;1.5370;
1236.0000;0.5315;1.5249;
1236.3000;0.5340;1.5273;
1236.6000;0.5340;1.5297;
1236.9000;0.5356;1.5443;
1237.2000;0.5324;1.5370;
1237.5000;0.5332;1.5370;
1237.8000;0.5332;1.5346;
1238.1000;0.5332;1.5346;
1238.4000;0.5324;1.5419;
1238.7000;0.5315;1.5443;
1239.0000;0.5340;1.5492;
1239.3000;0.5332;1.5394;
1239.6000;0.5291;1.5297;
1239.9000;0.5307;1.5273;
1240.2000;0.5324;1.5249;
1240.5000;0.5324;1.5200;
1240.8000;0.5299;1.5103;
1241.1000;0.5299;1.5079;
1241.4000;0.5372;1.5176;
1241.7000;0.5315;1.5079;
1242.0000;0.5324;1.5127;
1242.3000;0.5315;1.5054;
1242.6000;0.5340;1.5127;
1242.9000;0.5340;1.5152;
1243.2000;0.5315;1.5030;
1243.5000;0.5340;1.5127;
1243.8000;0.5348;1.5152;
1244.1000;0.5364;1.5200;
1244.4000;0.5324;1.5103;
1244.7000;0.5348;1.5127;
1245.0000;0.5332;1.5103;
1245.3000;0.5299;1.5054;
1245.6000;0.5332;1.5200;
1245.9000;0.5324;1.5152;
1246.2000;0.5324;1.5079;
1246.5000;0.5340;1.5127;
1246.8000;0.5324;1.5127;
1247.1000;0.5332;1.5152;
1247.4000;0.5340;1.5249;
1247.7000;0.5332;1.5200;
1248.0000;0.5381;1.5322;
1248.3000;0.5332;1.5249;
1248.6000;0.5315;1.5200;
1248.9000;0.5299;1.5200;
1249.2000;0.5324;1.5322;
1249.5000;0.5283;1.5152;
1249.8000;0.5324;1.5200;
1250.1000;0.5315;1.5224;
1250.4000;0.5332;1.5224;
1250.7000;0.5324;1.5224;
1251.0000;0.5307;1.5224;
1251.3000;0.5307;1.5152;
1251.6000;0.5324;1.5127;
1251.9000;0.5324;1.5079;
1252.2000;0.5332;1.5054;
1252.5000;0.5307;1.5054;
1252.8000;0.5324;1.5054;
1253.1000;0.5348;1.5079;
1253.4000;0.5307;1.5054;
1253.7000;0.5315;1.5127;
1254.0000;0.5315;1.5127;
1254.3000;0.5332;1.5200;
1254.6000;0.5307;1.5249;
1254.9000;0.5324;1.5224;
1255.2000;0.5332;1.5297;
1255.5000;0.5315;1.5224;
1255.8000;0.5332;1.5103;
1256.1000;0.5324;1.5006;
1256.4000;0.5324;1.5127;
1256.7000;0.5332;1.5152;
1257.0000;0.5324;1.5200;
1257.3000;0.5324;1.5176;
1257.6000;0.5405;1.5492;
1257.9000;0.5340;1.5370;
1258.2000;0.5356;1.5419;
1258.5000;0.5340;1.5419;
1258.8000;0.5315;1.5394;
1259.1000;0.5315;1.5443;
1259.4000;0.5299;1.5346;
1259.7000;0.5307;1.5394;
1260.0000;0.5315;1.5419;
1260.3000;0.5324;1.5370;
1260.6000;0.5340;1.5370;
1260.9000;0.5315;1.5346;
1261.2000;0.5315;1.5346;
1261.5000;0.5307;1.5297;
1261.8000;0.5332;1.5370;
1262.1000;0.5332;1.5419;
1262.4000;0.5315;1.5419;
1262.7000;0.5340;1.5467;
1263.0000;0.5356;1.5540;
1263.3000;0.5340;1.5467;
1263.6000;0.5324;1.5394;
1263.9000;0.5307;1.5322;
1264.2000;0.5315;1.5273;
1264.5000;0.5324;1.5249;
1264.8000;0.5324;1.5200;
1265.1000;0.5324;1.5249;
1265.4000;0.5324;1.5273;
1265.7000;0.5291;1.5249;
1266.0000;0.5315;1.5322;
1266.3000;0.5324;1.5297;
1266.6000;0.5299;1.5297;
1266.9000;0.5324;1.5322;
1267.2000;0.5324;1.5249;
1267.5000;0.5324;1.5249;
1267.8000;0.5315;1.5322;
1268.1000;0.5307;1.5346;
1268.4000;0.5332;1.5346;
1268.7000;0.5324;1.5346;
1269.0000;0.5340;1.5297;
1269.3000;0.5332;1.5224;
1269.6000;0.5315;1.5176;
1269.9000;0.5315;1.5152;
1270.2000;0.5324;1.5249;
1270.5000;0.5315;1.5249;
1270.8000;0.5324;1.5224;
1271.1000;0.5315;1.5224;
1271.4000;0.5315;1.5249;
1271.7000;0.5299;1.5200;
1272.0000;0.5324;1.5297;
1272.3000;0.5324;1.5297;
1272.6000;0.5324;1.5322;
1272.9000;0.5299;1.5200;
1273.2000;0.5315;1.5224;
1273.5000;0.5340;1.5249;
1273.8000;0.5275;1.5176;
1274.1000;0.5267;1.5224;
1274.4000;0.5324;1.5394;
1274.7000;0.5307;1.5322;
1275.0000;0.5315;1.5249;
1275.3000;0.5291;1.5224;
1275.6000;0.5315;1.5297;
1275.9000;0.5299;1.5297;
1276.2000;0.5332;1.5370;
1276.5000;0.5332;1.5346;
1276.8000;0.5315;1.5297;
1277.1000;0.5332;1.5370;
1277.4000;0.5324;1.5394;
1277.7000;0.5324;1.5346;
1278.0000;0.5332;1.5200;
1278.3000;0.5324;1.5273;
1278.6000;0.5340;1.5322;
1278.9000;0.5324;1.5297;
1279.2000;0.5340;1.5322;
1279.5000;0.5324;1.5394;
1279.8000;0.5332;1.5394;
1280.1000;0.5315;1.5419;
1280.4000;0.5340;1.5370;
1280.7000;0.5324;1.5297;
1281.0000;0.5315;1.5322;
1281.3000;0.5348;1.5273;
1281.6000;0.5315;1.5127;
1281.9000;0.5332;1.5152;
1282.2000;0.5356;1.5249;
1282.5000;0.5340;1.5224;
1282.8000;0.5332;1.5224;
1283.1000;0.5299;1.5152;
1283.4000;0.5315;1.5127;
1283.7000;0.5324;1.5224;
1284.0000;0.5340;1.5273;
1284.3000;0.5332;1.5152;
1284.6000;0.5340;1.5200;
1284.9000;0.5324;1.5127;
1285.2000;0.5356;1.5152;
1285.5000;0.5332;1.5054;
1285.8000;0.5324;1.5103;
1286.1000;0.5315;1.5176;
1286.4000;0.5324;1.5152;
1286.7000;0.5332;1.5224;
1287.0000;0.5283;1.5176;
1287.3000;0.5324;1.5249;
1287.6000;0.5356;1.5370;
1287.9000;0.5315;1.5297;
1288.2000;0.5307;1.5297;
1288.5000;0.5307;1.5346;
1288.8000;0.5324;1.5346;
1289.1000;0.5291;1.5346;
1289.4000;0.5389;1.5540;
1289.7000;0.5332;1.5419;
1290.0000;0.5332;1.5419;
1290.3000;0.5332;1.5370;
1290.6000;0.5315;1.5394;
1290.9000;0.5324;1.5370;
1291.2000;0.5332;1.5394;
1291.5000;0.5332;1.5322;
1291.8000;0.5332;1.5224;
1292.1000;0.5324;1.5249;
1292.4000;0.5332;1.5322;
1292.7000;0.5324;1.5249;
1293.0000;0.5340;1.5200;
1293.3000;0.5250;1.4933;
1293.6000;0.5324;1.5103;
1293.9000;0.5315;1.5079;
1294.2000;0.5315;1.5103;
1294.5000;0.5356;1.5370;
1294.8000;0.5324;1.5297;
1295.1000;0.5340;1.5346;
1295.4000;0.5340;1.5297;
1295.7000;0.5332;1.5297;
1296.0000;0.5429;1.5637;
1296.3000;0.5307;1.5249;
1296.6000;0.5315;1.5249;
1296.9000;0.5332;1.5176;
1297.2000;0.5307;1.5273;
1297.5000;0.5307;1.5322;
1297.8000;0.5299;1.5322;
1298.1000;0.5307;1.5370;
1298.4000;0.5340;1.5516;
1298.7000;0.5307;1.5419;
1299.0000;0.5324;1.5394;
1299.3000;0.5332;1.5370;
1299.6000;0.5324;1.5297;
1299.9000;0.5324;1.5249;
1300.2000;0.5307;1.5297;
1300.5000;0.5324;1.5273;
1300.8000;0.5315;1.5346;
1301.1000;0.5299;1.5273;
1301.4000;0.5315;1.5249;
1301.7000;0.5340;1.5297;
1302.0000;0.5307;1.5249;
1302.3000;0.5307;1.5200;
1302.6000;0.5315;1.5176;
1302.9000;0.5340;1.5176;
1303.2000;0.5332;1.5152;
1303.5000;0.5332;1.5152;
1303.8000;0.5315;1.5103;
1304.1000;0.5324;1.5103;
1304.4000;0.5340;1.5224;
1304.7000;0.5315;1.5176;
1305.0000;0.5340;1.5224;
1305.3000;0.5381;1.5370;
1305.6000;0.5332;1.5297;
1305.9000;0.5324;1.5249;
1306.2000;0.5324;1.5346;
1306.5000;0.5348;1.5370;
1306.8000;0.5348;1.5394;
1307.1000;0.5348;1.5370;
1307.4000;0.5315;1.5322;
1307.7000;0.5332;1.5370;
1308.0000;0.5315;1.5273;
1308.3000;0.5340;1.5297;
1308.6000;0.5315;1.5249;
1308.9000;0.5275;1.5224;
1309.2000;0.5324;1.5322;
1309.5000;0.5364;1.5370;
1309.8000;0.5299;1.5224;
1310.1000;0.5324;1.5224;
1310.4000;0.5332;1.5152;
1310.7000;0.5348;1.5152;
1311.0000;0.5356;1.5152;
1311.3000;0.5315;1.5030;
1311.6000;0.5324;1.5006;
1311.9000;0.5332;1.5054;
1312.2000;0.5356;1.5176;
1312.5000;0.5381;1.5322;
1312.8000;0.5315;1.5224;
1313.1000;0.5315;1.5127;
1313.4000;0.5332;1.5103;
1313.7000;0.5324;1.5006;
1314.0000;0.5324;1.4933;
1314.3000;0.5315;1.4787;
1314.6000;0.5332;1.4884;
1314.9000;0.5348;1.4884;
1315.2000;0.5332;1.4909;
1315.5000;0.5332;1.5006;
1315.8000;0.5315;1.5030;
1316.1000;0.5332;1.5152;
1316.4000;0.5364;1.5224;
1316.7000;0.5340;1.5176;
1317.0000;0.5299;1.5152;
1317.3000;0.5291;1.5127;
1317.6000;0.5332;1.5224;
1317.9000;0.5315;1.5152;
1318.2000;0.5332;1.5200;
1318.5000;0.5332;1.5127;
1318.8000;0.5307;1.5006;
1319.1000;0.5324;1.5030;
1319.4000;0.5381;1.5249;
1319.7000;0.5299;1.5103;
1320.0000;0.5210;1.4957;
1320.3000;0.5291;1.5152;
1320.6000;0.5315;1.5200;
1320.9000;0.5324;1.5176;
1321.2000;0.5315;1.5079;
1321.5000;0.5324;1.5176;
1321.8000;0.5307;1.5054;
1322.1000;0.5315;1.5152;
1322.4000;0.5315;1.5176;
1322.7000;0.5307;1.5224;
1323.0000;0.5332;1.5200;
1323.3000;0.5324;1.5249;
1323.6000;0.5332;1.5200;
1323.9000;0.5332;1.5152;
1324.2000;0.5340;1.5152;
1324.5000;0.5324;1.5152;
1324.8000;0.5332;1.5152;
1325.1000;0.5332;1.5127;
1325.4000;0.5332;1.5006;
1325.7000;0.5340;1.5030;
1326.0000;0.5332;1.5127;
1326.3000;0.5340;1.5103;
1326.6000;0.5307;1.5103;
1326.9000;0.5324;1.5249;
1327.2000;0.5405;1.5467;
1327.5000;0.5307;1.5152;
1327.8000;0.5332;1.5200;
1328.1000;0.5340;1.5297;
1328.4000;0.5324;1.5443;
1328.7000;0.5356;1.5443;
1329.0000;0.5315;1.5322;
1329.3000;0.5324;1.5297;
1329.6000;0.5324;1.5297;
1329.9000;0.5348;1.5370;
1330.2000;0.5332;1.5224;
1330.5000;0.5275;1.5152;
1330.8000;0.5340;1.5467;
1331.1000;0.5291;1.5419;
1331.4000;0.5324;1.5467;
1331.7000;0.5307;1.5443;
1332.0000;0.5315;1.5370;
1332.3000;0.5381;1.5492;
1332.6000;0.5324;1.5467;
1332.9000;0.5356;1.5589;
1333.2000;0.5324;1.5516;
1333.5000;0.5324;1.5492;
1333.8000;0.5275;1.5394;
1334.1000;0.5348;1.5589;
1334.4000;0.5340;1.5540;
1334.7000;0.5340;1.5589;
1335.0000;0.5275;1.5419;
1335.3000;0.5324;1.5492;
1335.6000;0.5315;1.5370;
1335.9000;0.5324;1.5322;
1336.2000;0.5356;1.5370;
1336.5000;0.5340;1.5297;
1336.8000;0.5356;1.5249;
1337.1000;0.5332;1.5176;
1337.4000;0.5324;1.5249;
1337.7000;0.5332;1.5249;
1338.0000;0.5315;1.5200;
1338.3000;0.5315;1.5200;
1338.6000;0.5218;1.5006;
1338.9000;0.5307;1.5249;
1339.2000;0.5291;1.5127;
1339.5000;0.5283;1.5200;
1339.8000;0.5275;1.5224;
1340.1000;0.5283;1.5103;
1340.4000;0.5348;1.5249;
1340.7000;0.5315;1.5200;
1341.0000;0.5364;1.5297;
1341.3000;0.5381;1.5370;
1341.6000;0.5315;1.5224;
1341.9000;0.5324;1.5200;
1342.2000;0.5299;1.5103;
1342.5000;0.5332;1.5127;
1342.8000;0.5291;1.4982;
1343.1000;0.5340;1.5054;
1343.4000;0.5332;1.4982;
1343.7000;0.5315;1.4909;
1344.0000;0.5381;1.5079;
1344.3000;0.5372;1.5152;
1344.6000;0.5315;1.5054;
1344.9000;0.5315;1.5152;
1345.2000;0.5324;1.5176;
1345.5000;0.5307;1.5176;
1345.8000;0.5307;1.5176;
1346.1000;0.5291;1.5176;
1346.4000;0.5332;1.5176;
1346.7000;0.5332;1.5224;
1347.0000;0.5332;1.5224;
1347.3000;0.5340;1.5273;
1347.6000;0.5324;1.5273;
1347.9000;0.5332;1.5249;
1348.2000;0.5332;1.5297;
1348.5000;0.5315;1.5297;
1348.8000;0.5332;1.5370;
1349.1000;0.5332;1.5322;
1349.4000;0.5324;1.5273;
1349.7000;0.5324;1.5297;
1350.0000;0.5324;1.5297;
1350.3000;0.5324;1.5322;
1350.6000;0.5340;1.5370;
1350.9000;0.5324;1.5297;
1351.2000;0.5315;1.5273;
1351.5000;0.5340;1.5249;
1351.8000;0.5299;1.5127;
1352.1000;0.5340;1.5249;
1352.4000;0.5315;1.5176;
1352.7000;0.5324;1.5200;
1353.0000;0.5332;1.5200;
1353.3000;0.5324;1.5273;
1353.6000;0.5332;1.5200;
1353.9000;0.5315;1.5127;
1354.2000;0.5315;1.5152;
1354.5000;0.5299;1.5152;
1354.8000;0.5340;1.5152;
1355.1000;0.5291;1.5127;
1355.4000;0.5332;1.5224;
1355.7000;0.5307;1.5127;
1356.0000;0.5307;1.5152;
1356.3000;0.5299;1.5200;
1356.6000;0.5283;1.5176;
1356.9000;0.5291;1.5176;
1357.2000;0.5307;1.5152;
1357.5000;0.5283;1.5079;
1357.8000;0.5315;1.5249;
1358.1000;0.5315;1.5200;
1358.4000;0.5340;1.5176;
1358.7000;0.5315;1.5152;
1359.0000;0.5218;1.4909;
1359.3000;0.5324;1.5176;
1359.6000;0.5315;1.5127;
1359.9000;0.5324;1.5152;
1360.2000;0.5307;1.5103;
1360.5000;0.5332;1.5127;
1360.8000;0.5340;1.5200;
1361.1000;0.5315;1.5176;
1361.4000;0.5315;1.5200;
1361.7000;0.5315;1.5224;
1362.0000;0.5324;1.5297;
1362.3000;0.5332;1.5273;
1362.6000;0.5332;1.5200;
1362.9000;0.5340;1.5249;
1363.2000;0.5267;1.5103;
1363.5000;0.5332;1.5249;
1363.8000;0.5299;1.5297;
1364.1000;0.5324;1.5419;
1364.4000;0.5307;1.5492;
1364.7000;0.5315;1.5394;
1365.0000;0.5315;1.5273;
1365.3000;0.5324;1.5176;
1365.6000;0.5307;1.5152;
1365.9000;0.5340;1.5224;
1366.2000;0.5324;1.5200;
1366.5000;0.5307;1.5127;
1366.8000;0.5324;1.5200;
1367.1000;0.5315;1.5224;
1367.4000;0.5340;1.5249;
1367.7000;0.5315;1.5224;
1368.0000;0.5307;1.5273;
1368.3000;0.5340;1.5394;
1368.6000;0.5315;1.5370;
1368.9000;0.5324;1.5370;
1369.2000;0.5348;1.5297;
1369.5000;0.5299;1.5224;
1369.8000;0.5397;1.5419;
1370.1000;0.5324;1.5273;
1370.4000;0.5307;1.5224;
1370.7000;0.5291;1.5224;
1371.0000;0.5315;1.5273;
1371.3000;0.5324;1.5176;
1371.6000;0.5315;1.5176;
1371.9000;0.5324;1.5249;
1372.2000;0.5315;1.5249;
1372.5000;0.5315;1.5322;
1372.8000;0.5324;1.5346;
1373.1000;0.5315;1.5273;
1373.4000;0.5315;1.5273;
1373.7000;0.5315;1.5322;
1374.0000;0.5307;1.5273;
1374.3000;0.5315;1.5322;
1374.6000;0.5307;1.5249;
1374.9000;0.5324;1.5273;
1375.2000;0.5307;1.5394;
1375.5000;0.5324;1.5467;
1375.8000;0.5315;1.5322;
1376.1000;0.5324;1.5346;
1376.4000;0.5324;1.5394;
1376.7000;0.5315;1.5346;
1377.0000;0.5340;1.5322;
1377.3000;0.5348;1.5394;
1377.6000;0.5332;1.5322;
1377.9000;0.5307;1.5346;
1378.2000;0.5299;1.5346;
1378.5000;0.5283;1.5249;
1378.8000;0.5307;1.5273;
1379.1000;0.5340;1.5249;
1379.4000;0.5421;1.5492;
1379.7000;0.5307;1.5297;
1380.0000;0.5291;1.5297;
1380.3000;0.5307;1.5346;
1380.6000;0.5299;1.5394;
1380.9000;0.5307;1.5322;
1381.2000;0.5315;1.5346;
1381.5000;0.5315;1.5322;
1381.8000;0.5332;1.5273;
1382.1000;0.5307;1.5370;
1382.4000;0.5324;1.5516;
1382.7000;0.5315;1.5443;
1383.0000;0.5332;1.5492;
1383.3000;0.5324;1.5443;
1383.6000;0.5340;1.5516;
1383.9000;0.5340;1.5467;
1384.2000;0.5340;1.5467;
1384.5000;0.5340;1.5516;
1384.8000;0.5324;1.5467;
1385.1000;0.5340;1.5443;
1385.4000;0.5324;1.5394;
1385.7000;0.5324;1.5322;
1386.0000;0.5372;1.5370;
1386.3000;0.5340;1.5297;
1386.6000;0.5324;1.5249;
1386.9000;0.5324;1.5224;
1387.2000;0.5324;1.5127;
1387.5000;0.5324;1.5176;
1387.8000;0.5315;1.5152;
1388.1000;0.5332;1.5224;
1388.4000;0.5315;1.5249;
1388.7000;0.5332;1.5346;
1389.0000;0.5348;1.5370;
1389.3000;0.5307;1.5322;
1389.6000;0.5324;1.5370;
1389.9000;0.5315;1.5346;
1390.2000;0.5340;1.5394;
1390.5000;0.5324;1.5346;
1390.8000;0.5332;1.5394;
1391.1000;0.5315;1.5346;
1391.4000;0.5324;1.5467;
1391.7000;0.5315;1.5516;
1392.0000;0.5307;1.5443;
1392.3000;0.5324;1.5394;
1392.6000;0.5315;1.5346;
1392.9000;0.5315;1.5273;
1393.2000;0.5315;1.5297;
1393.5000;0.5332;1.5419;
1393.8000;0.5324;1.5394;
1394.1000;0.5299;1.5419;
1394.4000;0.5332;1.5322;
1394.7000;0.5324;1.5297;
1395.0000;0.5340;1.5370;
1395.3000;0.5332;1.5419;
1395.6000;0.5315;1.5322;
1395.9000;0.5315;1.5249;
1396.2000;0.5324;1.5297;
1396.5000;0.5324;1.5322;
1396.8000;0.5315;1.5322;
1397.1000;0.5315;1.5322;
1397.4000;0.5315;1.5297;
1397.7000;0.5299;1.5273;
1398.0000;0.5275;1.5200;
1398.3000;0.5315;1.5273;
1398.6000;0.5307;1.5200;
1398.9000;0.5299;1.5127;
1399.2000;0.5307;1.5103;
1399.5000;0.5340;1.5103;
1399.8000;0.5315;1.4957;
