time/ms;Fluo/V;P700 deltaI/I x10³;
-199.8000;0.7709;1.5929;
-199.5000;0.7717;1.6026;
-199.2000;0.7798;1.6196;
-198.9000;0.7709;1.5977;
-198.6000;0.7709;1.6001;
-198.3000;0.7725;1.6123;
-198.0000;0.7717;1.6196;
-197.7000;0.7700;1.6196;
-197.4000;0.7692;1.6147;
-197.1000;0.7733;1.6244;
-196.8000;0.7700;1.6050;
-196.5000;0.7717;1.6099;
-196.2000;0.7684;1.5929;
-195.9000;0.7733;1.6147;
-195.6000;0.7717;1.6099;
-195.3000;0.7692;1.6001;
-195.0000;0.7733;1.6147;
-194.7000;0.7709;1.6026;
-194.4000;0.7635;1.5880;
-194.1000;0.7700;1.6074;
-193.8000;0.7717;1.6196;
-193.5000;0.7733;1.6293;
-193.2000;0.7717;1.6196;
-192.9000;0.7709;1.6123;
-192.6000;0.7700;1.6074;
-192.3000;0.7725;1.6074;
-192.0000;0.7619;1.5929;
-191.7000;0.7709;1.6074;
-191.4000;0.7684;1.6026;
-191.1000;0.7733;1.6147;
-190.8000;0.7725;1.6099;
-190.5000;0.7700;1.6050;
-190.2000;0.7684;1.6001;
-189.9000;0.7684;1.5977;
-189.6000;0.7709;1.6001;
-189.3000;0.7709;1.6050;
-189.0000;0.7733;1.6123;
-188.7000;0.7700;1.6074;
-188.4000;0.7709;1.6123;
-188.1000;0.7749;1.6269;
-187.8000;0.7692;1.6123;
-187.5000;0.7692;1.6026;
-187.2000;0.7700;1.5929;
-186.9000;0.7684;1.5977;
-186.6000;0.7700;1.6026;
-186.3000;0.7717;1.6099;
-186.0000;0.7717;1.6196;
-185.7000;0.7766;1.6317;
-185.4000;0.7725;1.6147;
-185.1000;0.7692;1.6099;
-184.8000;0.7782;1.6269;
-184.5000;0.7692;1.6026;
-184.2000;0.7692;1.6026;
-183.9000;0.7709;1.6026;
-183.6000;0.7692;1.5880;
-183.3000;0.7749;1.5977;
-183.0000;0.7676;1.5831;
-182.7000;0.7709;1.5783;
-182.4000;0.7725;1.5759;
-182.1000;0.7741;1.5807;
-181.8000;0.7725;1.5929;
-181.5000;0.7709;1.6026;
-181.2000;0.7709;1.5953;
-180.9000;0.7709;1.5880;
-180.6000;0.7709;1.5856;
-180.3000;0.7717;1.5856;
-180.0000;0.7692;1.5807;
-179.7000;0.7684;1.5710;
-179.4000;0.7700;1.5734;
-179.1000;0.7717;1.5783;
-178.8000;0.7660;1.5637;
-178.5000;0.7700;1.5759;
-178.2000;0.7741;1.5977;
-177.9000;0.7725;1.6050;
-177.6000;0.7709;1.5904;
-177.3000;0.7700;1.5856;
-177.0000;0.7684;1.5759;
-176.7000;0.7700;1.5807;
-176.4000;0.7684;1.5856;
-176.1000;0.7733;1.5856;
-175.8000;0.7668;1.5734;
-175.5000;0.7717;1.5856;
-175.2000;0.7717;1.5904;
-174.9000;0.7668;1.5783;
-174.6000;0.7692;1.5783;
-174.3000;0.7692;1.5856;
-174.0000;0.7684;1.5856;
-173.7000;0.7717;1.5904;
-173.4000;0.7692;1.5856;
-173.1000;0.7700;1.5929;
-172.8000;0.7709;1.6001;
-172.5000;0.7717;1.6050;
-172.2000;0.7709;1.6050;
-171.9000;0.7749;1.6123;
-171.6000;0.7700;1.5904;
-171.3000;0.7676;1.5831;
-171.0000;0.7700;1.6001;
-170.7000;0.7709;1.6074;
-170.4000;0.7660;1.5904;
-170.1000;0.7709;1.5953;
-169.8000;0.7717;1.6050;
-169.5000;0.7717;1.6001;
-169.2000;0.7766;1.6171;
-168.9000;0.7684;1.6001;
-168.6000;0.7684;1.5977;
-168.3000;0.7709;1.5953;
-168.0000;0.7709;1.6050;
-167.7000;0.7700;1.5953;
-167.4000;0.7733;1.6074;
-167.1000;0.7709;1.6074;
-166.8000;0.7684;1.6099;
-166.5000;0.7700;1.6123;
-166.2000;0.7652;1.6026;
-165.9000;0.7725;1.6220;
-165.6000;0.7733;1.6196;
-165.3000;0.7692;1.6196;
-165.0000;0.7660;1.6050;
-164.7000;0.7692;1.6099;
-164.4000;0.7684;1.6074;
-164.1000;0.7684;1.6099;
-163.8000;0.7733;1.6171;
-163.5000;0.7741;1.6196;
-163.2000;0.7668;1.6001;
-162.9000;0.7700;1.6026;
-162.6000;0.7700;1.5929;
-162.3000;0.7717;1.6074;
-162.0000;0.7684;1.6001;
-161.7000;0.7700;1.6099;
-161.4000;0.7709;1.6099;
-161.1000;0.7709;1.6050;
-160.8000;0.7741;1.6123;
-160.5000;0.7700;1.6050;
-160.2000;0.7717;1.6050;
-159.9000;0.7676;1.6001;
-159.6000;0.7668;1.6026;
-159.3000;0.7668;1.6074;
-159.0000;0.7700;1.6147;
-158.7000;0.7676;1.6099;
-158.4000;0.7692;1.6196;
-158.1000;0.7684;1.6147;
-157.8000;0.7692;1.6171;
-157.5000;0.7643;1.6026;
-157.2000;0.7725;1.6244;
-156.9000;0.7700;1.6244;
-156.6000;0.7700;1.6171;
-156.3000;0.7652;1.6050;
-156.0000;0.7717;1.6293;
-155.7000;0.7741;1.6269;
-155.4000;0.7684;1.6147;
-155.1000;0.7692;1.6171;
-154.8000;0.7700;1.6244;
-154.5000;0.7692;1.6269;
-154.2000;0.7757;1.6487;
-153.9000;0.7692;1.6317;
-153.6000;0.7692;1.6196;
-153.3000;0.7700;1.6196;
-153.0000;0.7700;1.6099;
-152.7000;0.7700;1.6099;
-152.4000;0.7717;1.6147;
-152.1000;0.7717;1.6074;
-151.8000;0.7700;1.6026;
-151.5000;0.7692;1.6074;
-151.2000;0.7717;1.6123;
-150.9000;0.7709;1.6123;
-150.6000;0.7700;1.6099;
-150.3000;0.7709;1.6147;
-150.0000;0.7692;1.6196;
-149.7000;0.7684;1.6220;
-149.4000;0.7700;1.6244;
-149.1000;0.7725;1.6220;
-148.8000;0.7692;1.6147;
-148.5000;0.7725;1.6317;
-148.2000;0.7725;1.6220;
-147.9000;0.7692;1.6220;
-147.6000;0.7684;1.6244;
-147.3000;0.7684;1.6293;
-147.0000;0.7709;1.6341;
-146.7000;0.7709;1.6317;
-146.4000;0.7684;1.6220;
-146.1000;0.7709;1.6293;
-145.8000;0.7700;1.6269;
-145.5000;0.7684;1.6171;
-145.2000;0.7766;1.6390;
-144.9000;0.7700;1.6220;
-144.6000;0.7709;1.6220;
-144.3000;0.7692;1.6269;
-144.0000;0.7700;1.6196;
-143.7000;0.7709;1.6196;
-143.4000;0.7700;1.6293;
-143.1000;0.7717;1.6341;
-142.8000;0.7709;1.6341;
-142.5000;0.7709;1.6341;
-142.2000;0.7709;1.6390;
-141.9000;0.7709;1.6317;
-141.6000;0.7700;1.6390;
-141.3000;0.7700;1.6317;
-141.0000;0.7700;1.6220;
-140.7000;0.7717;1.6171;
-140.4000;0.7717;1.6099;
-140.1000;0.7709;1.6026;
-139.8000;0.7709;1.6026;
-139.5000;0.7700;1.6001;
-139.2000;0.7741;1.6026;
-138.9000;0.7692;1.5904;
-138.6000;0.7733;1.6026;
-138.3000;0.7733;1.5977;
-138.0000;0.7733;1.6026;
-137.7000;0.7709;1.5977;
-137.4000;0.7709;1.6001;
-137.1000;0.7709;1.6050;
-136.8000;0.7717;1.6050;
-136.5000;0.7709;1.5977;
-136.2000;0.7709;1.6050;
-135.9000;0.7709;1.6026;
-135.6000;0.7717;1.6026;
-135.3000;0.7700;1.6050;
-135.0000;0.7709;1.6074;
-134.7000;0.7709;1.6099;
-134.4000;0.7684;1.5977;
-134.1000;0.7684;1.5977;
-133.8000;0.7700;1.5953;
-133.5000;0.7709;1.5856;
-133.2000;0.7692;1.5831;
-132.9000;0.7676;1.5856;
-132.6000;0.7692;1.5929;
-132.3000;0.7692;1.5904;
-132.0000;0.7684;1.5856;
-131.7000;0.7717;1.6001;
-131.4000;0.7709;1.6050;
-131.1000;0.7660;1.5929;
-130.8000;0.7700;1.6001;
-130.5000;0.7700;1.6026;
-130.2000;0.7700;1.6001;
-129.9000;0.7692;1.6001;
-129.6000;0.7676;1.6001;
-129.3000;0.7725;1.6099;
-129.0000;0.7709;1.6026;
-128.7000;0.7692;1.6074;
-128.4000;0.7660;1.6026;
-128.1000;0.7709;1.6171;
-127.8000;0.7692;1.6196;
-127.5000;0.7692;1.6196;
-127.2000;0.7692;1.6220;
-126.9000;0.7709;1.6269;
-126.6000;0.7700;1.6244;
-126.3000;0.7700;1.6293;
-126.0000;0.7709;1.6244;
-125.7000;0.7709;1.6317;
-125.4000;0.7676;1.6196;
-125.1000;0.7692;1.6244;
-124.8000;0.7709;1.6196;
-124.5000;0.7692;1.6171;
-124.2000;0.7692;1.6147;
-123.9000;0.7709;1.6123;
-123.6000;0.7700;1.6099;
-123.3000;0.7692;1.6123;
-123.0000;0.7676;1.6123;
-122.7000;0.7684;1.6220;
-122.4000;0.7660;1.6196;
-122.1000;0.7733;1.6293;
-121.8000;0.7700;1.6220;
-121.5000;0.7709;1.6171;
-121.2000;0.7709;1.6147;
-120.9000;0.7676;1.6050;
-120.6000;0.7692;1.6050;
-120.3000;0.7717;1.6123;
-120.0000;0.7700;1.6147;
-119.7000;0.7684;1.6074;
-119.4000;0.7692;1.6074;
-119.1000;0.7709;1.6171;
-118.8000;0.7725;1.6123;
-118.5000;0.7709;1.6099;
-118.2000;0.7700;1.6050;
-117.9000;0.7700;1.6001;
-117.6000;0.7692;1.6050;
-117.3000;0.7684;1.6026;
-117.0000;0.7709;1.6050;
-116.7000;0.7692;1.5953;
-116.4000;0.7709;1.6050;
-116.1000;0.7700;1.5977;
-115.8000;0.7700;1.5856;
-115.5000;0.7700;1.5880;
-115.2000;0.7725;1.6001;
-114.9000;0.7700;1.6026;
-114.6000;0.7741;1.6099;
-114.3000;0.7700;1.6074;
-114.0000;0.7676;1.5977;
-113.7000;0.7717;1.6050;
-113.4000;0.7709;1.6147;
-113.1000;0.7700;1.6074;
-112.8000;0.7692;1.5977;
-112.5000;0.7733;1.5977;
-112.2000;0.7692;1.5977;
-111.9000;0.7692;1.5929;
-111.6000;0.7700;1.6026;
-111.3000;0.7717;1.6147;
-111.0000;0.7709;1.6147;
-110.7000;0.7692;1.6171;
-110.4000;0.7684;1.6220;
-110.1000;0.7700;1.6317;
-109.8000;0.7709;1.6269;
-109.5000;0.7709;1.6269;
-109.2000;0.7709;1.6244;
-108.9000;0.7700;1.6269;
-108.6000;0.7709;1.6244;
-108.3000;0.7717;1.6269;
-108.0000;0.7700;1.6147;
-107.7000;0.7709;1.6123;
-107.4000;0.7709;1.6147;
-107.1000;0.7684;1.6050;
-106.8000;0.7692;1.6099;
-106.5000;0.7766;1.6269;
-106.2000;0.7603;1.5904;
-105.9000;0.7725;1.6074;
-105.6000;0.7700;1.6050;
-105.3000;0.7717;1.6099;
-105.0000;0.7700;1.6026;
-104.7000;0.7700;1.6074;
-104.4000;0.7660;1.6001;
-104.1000;0.7709;1.6074;
-103.8000;0.7692;1.6026;
-103.5000;0.7676;1.5929;
-103.2000;0.7635;1.5831;
-102.9000;0.7700;1.6050;
-102.6000;0.7692;1.6074;
-102.3000;0.7700;1.6123;
-102.0000;0.7700;1.6099;
-101.7000;0.7700;1.6074;
-101.4000;0.7676;1.5929;
-101.1000;0.7700;1.6026;
-100.8000;0.7692;1.6099;
-100.5000;0.7692;1.6147;
-100.2000;0.7684;1.6099;
-99.9000;0.7700;1.6147;
-99.6000;0.7700;1.6171;
-99.3000;0.7684;1.6171;
-99.0000;0.7692;1.6099;
-98.7000;0.7700;1.6074;
-98.4000;0.7717;1.6099;
-98.1000;0.7700;1.6026;
-97.8000;0.7692;1.5977;
-97.5000;0.7692;1.6026;
-97.2000;0.7684;1.6001;
-96.9000;0.7668;1.5977;
-96.6000;0.7684;1.5953;
-96.3000;0.7692;1.5977;
-96.0000;0.7668;1.5831;
-95.7000;0.7692;1.5953;
-95.4000;0.7725;1.6050;
-95.1000;0.7700;1.5880;
-94.8000;0.7692;1.5929;
-94.5000;0.7700;1.5807;
-94.2000;0.7717;1.5856;
-93.9000;0.7725;1.5953;
-93.6000;0.7684;1.5807;
-93.3000;0.7709;1.5831;
-93.0000;0.7790;1.6099;
-92.7000;0.7700;1.5977;
-92.4000;0.7700;1.5977;
-92.1000;0.7709;1.5929;
-91.8000;0.7717;1.6001;
-91.5000;0.7692;1.5904;
-91.2000;0.7700;1.5856;
-90.9000;0.7700;1.5807;
-90.6000;0.7709;1.5807;
-90.3000;0.7709;1.5831;
-90.0000;0.7700;1.5831;
-89.7000;0.7717;1.5880;
-89.4000;0.7700;1.5807;
-89.1000;0.7717;1.5807;
-88.8000;0.7709;1.5759;
-88.5000;0.7700;1.5807;
-88.2000;0.7692;1.5783;
-87.9000;0.7700;1.5734;
-87.6000;0.7692;1.5759;
-87.3000;0.7692;1.5734;
-87.0000;0.7700;1.5710;
-86.7000;0.7692;1.5686;
-86.4000;0.7741;1.5904;
-86.1000;0.7684;1.5807;
-85.8000;0.7717;1.5831;
-85.5000;0.7700;1.5856;
-85.2000;0.7700;1.5953;
-84.9000;0.7700;1.5929;
-84.6000;0.7725;1.5977;
-84.3000;0.7684;1.5929;
-84.0000;0.7692;1.5953;
-83.7000;0.7700;1.5929;
-83.4000;0.7700;1.5904;
-83.1000;0.7717;1.6001;
-82.8000;0.7717;1.6099;
-82.5000;0.7692;1.6001;
-82.2000;0.7700;1.6050;
-81.9000;0.7700;1.5977;
-81.6000;0.7700;1.5977;
-81.3000;0.7700;1.6001;
-81.0000;0.7700;1.5953;
-80.7000;0.7700;1.5880;
-80.4000;0.7692;1.5904;
-80.1000;0.7676;1.5831;
-79.8000;0.7692;1.5783;
-79.5000;0.7709;1.5904;
-79.2000;0.7700;1.5880;
-78.9000;0.7709;1.5929;
-78.6000;0.7709;1.5904;
-78.3000;0.7717;1.5856;
-78.0000;0.7643;1.5759;
-77.7000;0.7709;1.5929;
-77.4000;0.7709;1.5953;
-77.1000;0.7684;1.5953;
-76.8000;0.7717;1.5977;
-76.5000;0.7684;1.5904;
-76.2000;0.7700;1.5977;
-75.9000;0.7733;1.6099;
-75.6000;0.7700;1.5904;
-75.3000;0.7709;1.5929;
-75.0000;0.7660;1.5734;
-74.7000;0.7700;1.5904;
-74.4000;0.7700;1.5953;
-74.1000;0.7709;1.6050;
-73.8000;0.7700;1.5953;
-73.5000;0.7709;1.5929;
-73.2000;0.7684;1.5904;
-72.9000;0.7717;1.5953;
-72.6000;0.7709;1.6001;
-72.3000;0.7692;1.5977;
-72.0000;0.7692;1.5929;
-71.7000;0.7717;1.6050;
-71.4000;0.7717;1.6099;
-71.1000;0.7709;1.6099;
-70.8000;0.7700;1.6099;
-70.5000;0.7684;1.6074;
-70.2000;0.7700;1.6171;
-69.9000;0.7668;1.6074;
-69.6000;0.7635;1.5953;
-69.3000;0.7684;1.6099;
-69.0000;0.7668;1.5929;
-68.7000;0.7717;1.6026;
-68.4000;0.7700;1.5929;
-68.1000;0.7700;1.5880;
-67.8000;0.7676;1.5831;
-67.5000;0.7700;1.6001;
-67.2000;0.7709;1.6001;
-66.9000;0.7684;1.5929;
-66.6000;0.7749;1.6074;
-66.3000;0.7709;1.5929;
-66.0000;0.7692;1.5856;
-65.7000;0.7725;1.5880;
-65.4000;0.7709;1.5831;
-65.1000;0.7684;1.5783;
-64.8000;0.7709;1.5880;
-64.5000;0.7709;1.5856;
-64.2000;0.7717;1.5880;
-63.9000;0.7700;1.5807;
-63.6000;0.7717;1.5856;
-63.3000;0.7717;1.5831;
-63.0000;0.7692;1.5831;
-62.7000;0.7660;1.5880;
-62.4000;0.7749;1.6099;
-62.1000;0.7668;1.5904;
-61.8000;0.7692;1.5953;
-61.5000;0.7700;1.6050;
-61.2000;0.7717;1.6074;
-60.9000;0.7700;1.6074;
-60.6000;0.7692;1.6001;
-60.3000;0.7684;1.6001;
-60.0000;0.7733;1.6099;
-59.7000;0.7700;1.6050;
-59.4000;0.7684;1.5953;
-59.1000;0.7709;1.6050;
-58.8000;0.7692;1.5977;
-58.5000;0.7717;1.5977;
-58.2000;0.7700;1.5904;
-57.9000;0.7676;1.5977;
-57.6000;0.7700;1.6050;
-57.3000;0.7700;1.5977;
-57.0000;0.7790;1.6171;
-56.7000;0.7700;1.5856;
-56.4000;0.7700;1.6001;
-56.1000;0.7700;1.6074;
-55.8000;0.7709;1.6050;
-55.5000;0.7700;1.6050;
-55.2000;0.7684;1.6050;
-54.9000;0.7700;1.6099;
-54.6000;0.7692;1.6050;
-54.3000;0.7676;1.6074;
-54.0000;0.7766;1.6244;
-53.7000;0.7700;1.6074;
-53.4000;0.7709;1.6026;
-53.1000;0.7717;1.6001;
-52.8000;0.7692;1.5953;
-52.5000;0.7700;1.5977;
-52.2000;0.7700;1.5953;
-51.9000;0.7684;1.5929;
-51.6000;0.7725;1.5953;
-51.3000;0.7709;1.5856;
-51.0000;0.7652;1.5807;
-50.7000;0.7709;1.5977;
-50.4000;0.7700;1.6026;
-50.1000;0.7709;1.6147;
-49.8000;0.7692;1.6196;
-49.5000;0.7700;1.6269;
-49.2000;0.7709;1.6196;
-48.9000;0.7700;1.6074;
-48.6000;0.7652;1.5904;
-48.3000;0.7709;1.6050;
-48.0000;0.7700;1.6074;
-47.7000;0.7717;1.6099;
-47.4000;0.7709;1.6147;
-47.1000;0.7700;1.6099;
-46.8000;0.7709;1.6099;
-46.5000;0.7709;1.6123;
-46.2000;0.7692;1.6074;
-45.9000;0.7692;1.6026;
-45.6000;0.7692;1.5977;
-45.3000;0.7692;1.6050;
-45.0000;0.7692;1.6001;
-44.7000;0.7700;1.5953;
-44.4000;0.7700;1.5929;
-44.1000;0.7709;1.5977;
-43.8000;0.7700;1.6050;
-43.5000;0.7692;1.6099;
-43.2000;0.7717;1.6050;
-42.9000;0.7717;1.5977;
-42.6000;0.7709;1.5929;
-42.3000;0.7725;1.6001;
-42.0000;0.7717;1.6026;
-41.7000;0.7709;1.6026;
-41.4000;0.7717;1.6050;
-41.1000;0.7700;1.6123;
-40.8000;0.7717;1.6050;
-40.5000;0.7700;1.5977;
-40.2000;0.7700;1.5953;
-39.9000;0.7717;1.5953;
-39.6000;0.7709;1.5953;
-39.3000;0.7652;1.5783;
-39.0000;0.7725;1.5929;
-38.7000;0.7692;1.5831;
-38.4000;0.7700;1.5831;
-38.1000;0.7700;1.6026;
-37.8000;0.7733;1.6123;
-37.5000;0.7741;1.6123;
-37.2000;0.7700;1.6099;
-36.9000;0.7717;1.6171;
-36.6000;0.7692;1.6123;
-36.3000;0.7717;1.6147;
-36.0000;0.7692;1.6099;
-35.7000;0.7709;1.6074;
-35.4000;0.7717;1.6099;
-35.1000;0.7692;1.6001;
-34.8000;0.7676;1.5880;
-34.5000;0.7700;1.5904;
-34.2000;0.7741;1.6050;
-33.9000;0.7692;1.5929;
-33.6000;0.7692;1.5929;
-33.3000;0.7700;1.5929;
-33.0000;0.7700;1.5929;
-32.7000;0.7692;1.5953;
-32.4000;0.7668;1.5856;
-32.1000;0.7692;1.5856;
-31.8000;0.7692;1.5807;
-31.5000;0.7700;1.5807;
-31.2000;0.7660;1.5734;
-30.9000;0.7684;1.5831;
-30.6000;0.7700;1.6001;
-30.3000;0.7700;1.6026;
-30.0000;0.7700;1.6001;
-29.7000;0.7757;1.6147;
-29.4000;0.7717;1.5929;
-29.1000;0.7635;1.5783;
-28.8000;0.7725;1.6001;
-28.5000;0.7700;1.5977;
-28.2000;0.7700;1.5953;
-27.9000;0.7709;1.5953;
-27.6000;0.7717;1.5807;
-27.3000;0.7700;1.5856;
-27.0000;0.7725;1.5904;
-26.7000;0.7725;1.5783;
-26.4000;0.7709;1.5783;
-26.1000;0.7700;1.5734;
-25.8000;0.7692;1.5734;
-25.5000;0.7717;1.5880;
-25.2000;0.7798;1.6220;
-24.9000;0.7692;1.5880;
-24.6000;0.7717;1.5929;
-24.3000;0.7709;1.5929;
-24.0000;0.7709;1.5904;
-23.7000;0.7700;1.5977;
-23.4000;0.7709;1.6026;
-23.1000;0.7692;1.6123;
-22.8000;0.7709;1.6123;
-22.5000;0.7684;1.6147;
-22.2000;0.7717;1.6074;
-21.9000;0.7684;1.6001;
-21.6000;0.7717;1.6074;
-21.3000;0.7717;1.6026;
-21.0000;0.7700;1.6074;
-20.7000;0.7709;1.6050;
-20.4000;0.7700;1.6026;
-20.1000;0.7700;1.6050;
-19.8000;0.7709;1.6099;
-19.5000;0.7700;1.6147;
-19.2000;0.7725;1.6196;
-18.9000;0.7692;1.6074;
-18.6000;0.7709;1.6123;
-18.3000;0.7684;1.6123;
-18.0000;0.7700;1.6171;
-17.7000;0.7700;1.6244;
-17.4000;0.7684;1.6220;
-17.1000;0.7709;1.6196;
-16.8000;0.7709;1.6171;
-16.5000;0.7692;1.6074;
-16.2000;0.7700;1.6074;
-15.9000;0.7709;1.6099;
-15.6000;0.7611;1.5831;
-15.3000;0.7692;1.6099;
-15.0000;0.7709;1.6220;
-14.7000;0.7700;1.6317;
-14.4000;0.7684;1.6244;
-14.1000;0.7700;1.6196;
-13.8000;0.7725;1.6171;
-13.5000;0.7692;1.6099;
-13.2000;0.7700;1.6050;
-12.9000;0.7709;1.6050;
-12.6000;0.7725;1.6026;
-12.3000;0.7749;1.6074;
-12.0000;0.7709;1.6026;
-11.7000;0.7692;1.6001;
-11.4000;0.7709;1.6099;
-11.1000;0.7635;1.5831;
-10.8000;0.7700;1.5977;
-10.5000;0.7692;1.5929;
-10.2000;0.7660;1.5880;
-9.9000;0.7709;1.6026;
-9.6000;0.7709;1.6074;
-9.3000;0.7725;1.6147;
-9.0000;0.7700;1.6026;
-8.7000;0.7660;1.5880;
-8.4000;0.7766;1.6171;
-8.1000;0.7684;1.5953;
-7.8000;0.7635;1.5856;
-7.5000;0.7684;1.6001;
-7.2000;0.7668;1.6050;
-6.9000;0.7668;1.6050;
-6.6000;0.7668;1.6026;
-6.3000;0.7700;1.6050;
-6.0000;0.7709;1.6026;
-5.7000;0.7700;1.5977;
-5.4000;0.7684;1.5880;
-5.1000;0.7692;1.6001;
-4.8000;0.7700;1.5977;
-4.5000;0.7692;1.6001;
-4.2000;0.7692;1.5953;
-3.9000;0.7692;1.5953;
-3.6000;0.7684;1.6026;
-3.3000;0.7692;1.6050;
-3.0000;0.7709;1.6050;
-2.7000;0.7676;1.6050;
-2.4000;0.7684;1.6123;
-2.1000;0.7700;1.6196;
-1.8000;0.7684;1.6220;
-1.5000;0.7692;1.6220;
-1.2000;0.7692;1.6171;
-0.9000;0.7709;1.6171;
-0.6000;0.7717;1.6196;
-0.3000;0.7717;1.6171;
0.0000;0.7717;1.6171;
0.3000;0.7831;1.6099;
0.6000;0.8067;1.6608;
0.9000;0.8213;1.6973;
1.2000;0.8376;1.7313;
1.5000;0.8514;1.7677;
1.8000;0.8571;1.7895;
2.1000;0.8653;1.8187;
2.4000;0.8710;1.8381;
2.7000;0.8775;1.8575;
3.0000;0.8824;1.8745;
3.3000;0.8848;1.8964;
3.6000;0.8905;1.9158;
3.9000;0.8913;1.9182;
4.2000;0.8962;1.9304;
4.5000;0.8995;1.9377;
4.8000;0.9027;1.9377;
5.1000;0.9011;1.9328;
5.4000;0.9084;1.9449;
5.7000;0.9068;1.9352;
6.0000;0.9084;1.9377;
6.3000;0.9109;1.9425;
6.6000;0.9141;1.9522;
6.9000;0.9084;1.9425;
7.2000;0.9149;1.9571;
7.5000;0.9158;1.9644;
7.8000;0.9190;1.9716;
8.1000;0.9206;1.9668;
8.4000;0.9214;1.9474;
8.7000;0.9239;1.9498;
9.0000;0.9223;1.9474;
9.3000;0.9263;1.9571;
9.6000;0.9271;1.9546;
9.9000;0.9280;1.9522;
10.2000;0.9280;1.9474;
10.5000;0.9296;1.9474;
10.8000;0.9304;1.9546;
11.1000;0.9304;1.9498;
11.4000;0.9320;1.9498;
11.7000;0.9328;1.9474;
12.0000;0.9410;1.9644;
12.3000;0.9328;1.9425;
12.6000;0.9345;1.9401;
12.9000;0.9377;1.9449;
13.2000;0.9410;1.9546;
13.5000;0.9369;1.9449;
13.8000;0.9402;1.9449;
14.1000;0.9394;1.9377;
14.4000;0.9410;1.9401;
14.7000;0.9402;1.9449;
15.0000;0.9434;1.9644;
15.3000;0.9434;1.9741;
15.6000;0.9451;1.9765;
15.9000;0.9451;1.9814;
16.2000;0.9442;1.9741;
16.5000;0.9451;1.9716;
16.8000;0.9467;1.9716;
17.1000;0.9532;1.9862;
17.4000;0.9451;1.9644;
17.7000;0.9467;1.9619;
18.0000;0.9573;1.9838;
18.3000;0.9475;1.9619;
18.6000;0.9483;1.9692;
18.9000;0.9491;1.9716;
19.2000;0.9491;1.9716;
19.5000;0.9483;1.9716;
19.8000;0.9491;1.9741;
20.1000;0.9499;1.9692;
20.4000;0.9508;1.9716;
20.7000;0.9516;1.9789;
21.0000;0.9516;1.9741;
21.3000;0.9491;1.9716;
21.6000;0.9516;1.9765;
21.9000;0.9483;1.9644;
22.2000;0.9540;1.9789;
22.5000;0.9524;1.9765;
22.8000;0.9516;1.9716;
23.1000;0.9532;1.9644;
23.4000;0.9540;1.9668;
23.7000;0.9532;1.9644;
24.0000;0.9532;1.9595;
24.3000;0.9532;1.9619;
24.6000;0.9646;1.9935;
24.9000;0.9548;1.9716;
25.2000;0.9491;1.9546;
25.5000;0.9524;1.9571;
25.8000;0.9613;1.9814;
26.1000;0.9565;1.9668;
26.4000;0.9556;1.9619;
26.7000;0.9540;1.9595;
27.0000;0.9556;1.9644;
27.3000;0.9548;1.9595;
27.6000;0.9565;1.9644;
27.9000;0.9646;1.9789;
28.2000;0.9540;1.9571;
28.5000;0.9565;1.9668;
28.8000;0.9573;1.9741;
29.1000;0.9565;1.9741;
29.4000;0.9573;1.9692;
29.7000;0.9613;1.9814;
30.0000;0.9573;1.9668;
30.3000;0.9499;1.9425;
30.6000;0.9548;1.9595;
30.9000;0.9605;1.9716;
31.2000;0.9589;1.9692;
31.5000;0.9597;1.9644;
31.8000;0.9654;1.9716;
32.1000;0.9573;1.9546;
32.4000;0.9605;1.9619;
32.7000;0.9589;1.9546;
33.0000;0.9581;1.9546;
33.3000;0.9589;1.9522;
33.6000;0.9532;1.9449;
33.9000;0.9589;1.9571;
34.2000;0.9581;1.9619;
34.5000;0.9597;1.9644;
34.8000;0.9597;1.9692;
35.1000;0.9613;1.9814;
35.4000;0.9581;1.9668;
35.7000;0.9589;1.9644;
36.0000;0.9589;1.9741;
36.3000;0.9613;1.9814;
36.6000;0.9589;1.9741;
36.9000;0.9589;1.9716;
37.2000;0.9613;1.9789;
37.5000;0.9613;1.9765;
37.8000;0.9605;1.9741;
38.1000;0.9589;1.9741;
38.4000;0.9621;1.9765;
38.7000;0.9621;1.9789;
39.0000;0.9613;1.9716;
39.3000;0.9630;1.9789;
39.6000;0.9597;1.9716;
39.9000;0.9597;1.9765;
40.2000;0.9613;1.9862;
40.5000;0.9613;1.9862;
40.8000;0.9613;1.9862;
41.1000;0.9621;1.9838;
41.4000;0.9630;1.9789;
41.7000;0.9621;1.9838;
42.0000;0.9630;1.9886;
42.3000;0.9597;1.9862;
42.6000;0.9613;1.9765;
42.9000;0.9646;1.9789;
43.2000;0.9613;1.9741;
43.5000;0.9621;1.9741;
43.8000;0.9630;1.9741;
44.1000;0.9621;1.9789;
44.4000;0.9605;1.9741;
44.7000;0.9621;1.9789;
45.0000;0.9630;1.9838;
45.3000;0.9621;1.9814;
45.6000;0.9630;1.9838;
45.9000;0.9621;1.9716;
46.2000;0.9630;1.9765;
46.5000;0.9589;1.9716;
46.8000;0.9638;1.9862;
47.1000;0.9621;1.9741;
47.4000;0.9630;1.9789;
47.7000;0.9630;1.9862;
48.0000;0.9654;1.9886;
48.3000;0.9646;1.9741;
48.6000;0.9630;1.9741;
48.9000;0.9638;1.9716;
49.2000;0.9646;1.9716;
49.5000;0.9630;1.9741;
49.8000;0.9630;1.9716;
50.1000;0.9630;1.9741;
50.4000;0.9638;1.9765;
50.7000;0.9638;1.9716;
51.0000;0.9605;1.9644;
51.3000;0.9646;1.9644;
51.6000;0.9654;1.9668;
51.9000;0.9638;1.9644;
52.2000;0.9678;1.9716;
52.5000;0.9646;1.9644;
52.8000;0.9654;1.9619;
53.1000;0.9646;1.9619;
53.4000;0.9654;1.9571;
53.7000;0.9613;1.9522;
54.0000;0.9646;1.9498;
54.3000;0.9662;1.9522;
54.6000;0.9638;1.9546;
54.9000;0.9662;1.9668;
55.2000;0.9638;1.9619;
55.5000;0.9646;1.9716;
55.8000;0.9621;1.9595;
56.1000;0.9646;1.9644;
56.4000;0.9654;1.9692;
56.7000;0.9638;1.9741;
57.0000;0.9654;1.9814;
57.3000;0.9638;1.9741;
57.6000;0.9646;1.9741;
57.9000;0.9735;2.0008;
58.2000;0.9646;1.9838;
58.5000;0.9605;1.9741;
58.8000;0.9646;1.9886;
59.1000;0.9638;1.9838;
59.4000;0.9662;1.9789;
59.7000;0.9695;1.9862;
60.0000;0.9646;1.9765;
60.3000;0.9613;1.9716;
60.6000;0.9638;1.9886;
60.9000;0.9646;1.9886;
61.2000;0.9670;1.9935;
61.5000;0.9646;1.9814;
61.8000;0.9638;1.9838;
62.1000;0.9613;1.9741;
62.4000;0.9638;1.9741;
62.7000;0.9581;1.9644;
63.0000;0.9573;1.9571;
63.3000;0.9719;2.0008;
63.6000;0.9638;1.9959;
63.9000;0.9621;1.9862;
64.2000;0.9654;1.9862;
64.5000;0.9670;1.9911;
64.8000;0.9662;1.9838;
65.1000;0.9646;1.9814;
65.4000;0.9646;1.9862;
65.7000;0.9646;1.9765;
66.0000;0.9670;1.9789;
66.3000;0.9654;1.9838;
66.6000;0.9621;1.9692;
66.9000;0.9646;1.9741;
67.2000;0.9670;1.9789;
67.5000;0.9662;1.9862;
67.8000;0.9646;1.9886;
68.1000;0.9662;1.9838;
68.4000;0.9654;1.9911;
68.7000;0.9662;1.9935;
69.0000;0.9646;1.9935;
69.3000;0.9654;1.9959;
69.6000;0.9744;2.0081;
69.9000;0.9646;1.9862;
70.2000;0.9646;1.9838;
70.5000;0.9638;1.9838;
70.8000;0.9638;1.9886;
71.1000;0.9646;1.9935;
71.4000;0.9638;1.9862;
71.7000;0.9654;1.9911;
72.0000;0.9646;1.9911;
72.3000;0.9646;1.9814;
72.6000;0.9654;1.9862;
72.9000;0.9654;1.9838;
73.2000;0.9662;1.9862;
73.5000;0.9670;1.9959;
73.8000;0.9654;1.9911;
74.1000;0.9662;1.9959;
74.4000;0.9662;1.9886;
74.7000;0.9670;1.9911;
75.0000;0.9670;1.9886;
75.3000;0.9646;1.9838;
75.6000;0.9646;1.9765;
75.9000;0.9654;1.9716;
76.2000;0.9687;1.9716;
76.5000;0.9654;1.9668;
76.8000;0.9654;1.9644;
77.1000;0.9662;1.9619;
77.4000;0.9662;1.9668;
77.7000;0.9695;1.9765;
78.0000;0.9646;1.9644;
78.3000;0.9662;1.9716;
78.6000;0.9654;1.9765;
78.9000;0.9646;1.9741;
79.2000;0.9646;1.9741;
79.5000;0.9695;1.9814;
79.8000;0.9670;1.9692;
80.1000;0.9613;1.9571;
80.4000;0.9646;1.9692;
80.7000;0.9670;1.9692;
81.0000;0.9646;1.9644;
81.3000;0.9670;1.9789;
81.6000;0.9621;1.9644;
81.9000;0.9646;1.9619;
82.2000;0.9662;1.9716;
82.5000;0.9646;1.9716;
82.8000;0.9670;1.9789;
83.1000;0.9654;1.9765;
83.4000;0.9670;1.9838;
83.7000;0.9703;2.0032;
84.0000;0.9654;2.0008;
84.3000;0.9581;1.9765;
84.6000;0.9654;1.9959;
84.9000;0.9662;1.9984;
85.2000;0.9654;2.0081;
85.5000;0.9662;2.0056;
85.8000;0.9662;2.0008;
86.1000;0.9662;2.0056;
86.4000;0.9654;1.9911;
86.7000;0.9654;1.9935;
87.0000;0.9630;1.9911;
87.3000;0.9646;1.9984;
87.6000;0.9654;1.9911;
87.9000;0.9654;1.9838;
88.2000;0.9654;1.9765;
88.5000;0.9654;1.9765;
88.8000;0.9670;1.9765;
89.1000;0.9662;1.9789;
89.4000;0.9646;1.9741;
89.7000;0.9670;1.9741;
90.0000;0.9662;1.9789;
90.3000;0.9654;1.9789;
90.6000;0.9654;1.9789;
90.9000;0.9646;1.9741;
91.2000;0.9654;1.9716;
91.5000;0.9678;1.9765;
91.8000;0.9654;1.9644;
92.1000;0.9605;1.9546;
92.4000;0.9654;1.9668;
92.7000;0.9654;1.9741;
93.0000;0.9638;1.9765;
93.3000;0.9638;1.9741;
93.6000;0.9670;1.9765;
93.9000;0.9638;1.9668;
94.2000;0.9646;1.9692;
94.5000;0.9646;1.9595;
94.8000;0.9638;1.9522;
95.1000;0.9654;1.9546;
95.4000;0.9638;1.9474;
95.7000;0.9638;1.9522;
96.0000;0.9621;1.9449;
96.3000;0.9638;1.9571;
96.6000;0.9638;1.9619;
96.9000;0.9638;1.9619;
97.2000;0.9630;1.9668;
97.5000;0.9719;1.9911;
97.8000;0.9646;1.9765;
98.1000;0.9654;1.9765;
98.4000;0.9646;1.9716;
98.7000;0.9670;1.9765;
99.0000;0.9687;1.9838;
99.3000;0.9687;1.9814;
99.6000;0.9662;1.9741;
99.9000;0.9646;1.9765;
100.2000;0.9711;1.9789;
100.5000;0.9678;1.9716;
100.8000;0.9581;1.9474;
101.1000;0.9654;1.9644;
101.4000;0.9621;1.9546;
101.7000;0.9687;1.9741;
102.0000;0.9621;1.9692;
102.3000;0.9638;1.9668;
102.6000;0.9654;1.9741;
102.9000;0.9646;1.9692;
103.2000;0.9662;1.9716;
103.5000;0.9678;1.9595;
103.8000;0.9646;1.9522;
104.1000;0.9670;1.9546;
104.4000;0.9654;1.9522;
104.7000;0.9678;1.9571;
105.0000;0.9662;1.9644;
105.3000;0.9638;1.9668;
105.6000;0.9662;1.9692;
105.9000;0.9662;1.9668;
106.2000;0.9662;1.9595;
106.5000;0.9662;1.9716;
106.8000;0.9662;1.9765;
107.1000;0.9662;1.9765;
107.4000;0.9646;1.9619;
107.7000;0.9703;1.9765;
108.0000;0.9654;1.9668;
108.3000;0.9654;1.9668;
108.6000;0.9662;1.9692;
108.9000;0.9646;1.9668;
109.2000;0.9670;1.9692;
109.5000;0.9670;1.9619;
109.8000;0.9662;1.9619;
110.1000;0.9646;1.9595;
110.4000;0.9662;1.9692;
110.7000;0.9638;1.9619;
111.0000;0.9638;1.9692;
111.3000;0.9654;1.9716;
111.6000;0.9654;1.9716;
111.9000;0.9646;1.9789;
112.2000;0.9654;1.9716;
112.5000;0.9654;1.9716;
112.8000;0.9638;1.9789;
113.1000;0.9646;1.9814;
113.4000;0.9654;1.9789;
113.7000;0.9630;1.9741;
114.0000;0.9638;1.9668;
114.3000;0.9654;1.9716;
114.6000;0.9662;1.9814;
114.9000;0.9646;1.9789;
115.2000;0.9654;1.9765;
115.5000;0.9695;1.9838;
115.8000;0.9654;1.9741;
116.1000;0.9654;1.9716;
116.4000;0.9646;1.9741;
116.7000;0.9662;1.9862;
117.0000;0.9654;1.9741;
117.3000;0.9654;1.9741;
117.6000;0.9654;1.9668;
117.9000;0.9646;1.9668;
118.2000;0.9662;1.9765;
118.5000;0.9670;1.9765;
118.8000;0.9670;1.9814;
119.1000;0.9646;1.9716;
119.4000;0.9678;1.9741;
119.7000;0.9670;1.9716;
120.0000;0.9678;1.9692;
120.3000;0.9654;1.9595;
120.6000;0.9646;1.9619;
120.9000;0.9654;1.9668;
121.2000;0.9613;1.9571;
121.5000;0.9654;1.9692;
121.8000;0.9638;1.9668;
122.1000;0.9654;1.9692;
122.4000;0.9646;1.9668;
122.7000;0.9638;1.9619;
123.0000;0.9646;1.9644;
123.3000;0.9605;1.9571;
123.6000;0.9646;1.9692;
123.9000;0.9646;1.9716;
124.2000;0.9654;1.9741;
124.5000;0.9646;1.9668;
124.8000;0.9662;1.9765;
125.1000;0.9654;1.9838;
125.4000;0.9654;1.9862;
125.7000;0.9662;1.9911;
126.0000;0.9662;1.9959;
126.3000;0.9703;2.0081;
126.6000;0.9646;1.9935;
126.9000;0.9581;1.9716;
127.2000;0.9662;1.9862;
127.5000;0.9703;1.9862;
127.8000;0.9646;1.9668;
128.1000;0.9646;1.9595;
128.4000;0.9630;1.9619;
128.7000;0.9630;1.9619;
129.0000;0.9646;1.9716;
129.3000;0.9638;1.9692;
129.6000;0.9638;1.9741;
129.9000;0.9646;1.9741;
130.2000;0.9646;1.9765;
130.5000;0.9630;1.9741;
130.8000;0.9670;1.9862;
131.1000;0.9662;1.9911;
131.4000;0.9662;1.9814;
131.7000;0.9662;1.9789;
132.0000;0.9638;1.9619;
132.3000;0.9646;1.9571;
132.6000;0.9662;1.9595;
132.9000;0.9654;1.9522;
133.2000;0.9646;1.9522;
133.5000;0.9646;1.9474;
133.8000;0.9646;1.9522;
134.1000;0.9654;1.9546;
134.4000;0.9621;1.9425;
134.7000;0.9646;1.9522;
135.0000;0.9654;1.9522;
135.3000;0.9654;1.9595;
135.6000;0.9654;1.9546;
135.9000;0.9646;1.9522;
136.2000;0.9654;1.9595;
136.5000;0.9646;1.9522;
136.8000;0.9654;1.9522;
137.1000;0.9638;1.9498;
137.4000;0.9646;1.9571;
137.7000;0.9621;1.9546;
138.0000;0.9605;1.9571;
138.3000;0.9654;1.9668;
138.6000;0.9654;1.9716;
138.9000;0.9670;1.9644;
139.2000;0.9638;1.9571;
139.5000;0.9638;1.9595;
139.8000;0.9646;1.9619;
140.1000;0.9638;1.9741;
140.4000;0.9646;1.9741;
140.7000;0.9654;1.9716;
141.0000;0.9630;1.9619;
141.3000;0.9638;1.9546;
141.6000;0.9646;1.9546;
141.9000;0.9646;1.9498;
142.2000;0.9670;1.9571;
142.5000;0.9678;1.9692;
142.8000;0.9670;1.9716;
143.1000;0.9638;1.9716;
143.4000;0.9646;1.9644;
143.7000;0.9638;1.9668;
144.0000;0.9670;1.9765;
144.3000;0.9654;1.9789;
144.6000;0.9646;1.9838;
144.9000;0.9565;1.9692;
145.2000;0.9646;1.9838;
145.5000;0.9695;1.9959;
145.8000;0.9670;2.0032;
146.1000;0.9556;1.9789;
146.4000;0.9654;1.9984;
146.7000;0.9646;1.9959;
147.0000;0.9735;2.0105;
147.3000;0.9638;1.9838;
147.6000;0.9654;1.9886;
147.9000;0.9630;1.9814;
148.2000;0.9638;1.9789;
148.5000;0.9654;1.9765;
148.8000;0.9646;1.9838;
149.1000;0.9621;1.9765;
149.4000;0.9670;1.9862;
149.7000;0.9703;1.9886;
150.0000;0.9646;1.9716;
150.3000;0.9613;1.9692;
150.6000;0.9654;1.9838;
150.9000;0.9662;1.9838;
151.2000;0.9678;1.9862;
151.5000;0.9670;1.9814;
151.8000;0.9630;1.9716;
152.1000;0.9589;1.9571;
152.4000;0.9670;1.9814;
152.7000;0.9646;1.9741;
153.0000;0.9670;1.9765;
153.3000;0.9662;1.9741;
153.6000;0.9670;1.9741;
153.9000;0.9662;1.9838;
154.2000;0.9670;1.9935;
154.5000;0.9670;1.9935;
154.8000;0.9638;1.9838;
155.1000;0.9630;1.9814;
155.4000;0.9646;1.9814;
155.7000;0.9630;1.9814;
156.0000;0.9638;1.9838;
156.3000;0.9678;1.9959;
156.6000;0.9638;1.9911;
156.9000;0.9630;1.9886;
157.2000;0.9654;1.9959;
157.5000;0.9654;1.9959;
157.8000;0.9646;1.9984;
158.1000;0.9662;2.0008;
158.4000;0.9638;1.9911;
158.7000;0.9630;1.9862;
159.0000;0.9597;1.9765;
159.3000;0.9646;1.9862;
159.6000;0.9662;1.9814;
159.9000;0.9638;1.9668;
160.2000;0.9613;1.9595;
160.5000;0.9662;1.9716;
160.8000;0.9654;1.9789;
161.1000;0.9621;1.9692;
161.4000;0.9638;1.9814;
161.7000;0.9695;2.0081;
162.0000;0.9662;1.9959;
162.3000;0.9727;2.0129;
162.6000;0.9662;1.9862;
162.9000;0.9597;1.9814;
163.2000;0.9654;1.9911;
163.5000;0.9597;1.9741;
163.8000;0.9654;1.9789;
164.1000;0.9630;1.9765;
164.4000;0.9654;1.9765;
164.7000;0.9662;1.9862;
165.0000;0.9662;1.9911;
165.3000;0.9654;1.9935;
165.6000;0.9654;1.9935;
165.9000;0.9654;1.9959;
166.2000;0.9654;1.9911;
166.5000;0.9621;1.9862;
166.8000;0.9703;2.0008;
167.1000;0.9646;1.9911;
167.4000;0.9654;1.9838;
167.7000;0.9654;1.9741;
168.0000;0.9662;1.9692;
168.3000;0.9678;1.9765;
168.6000;0.9646;1.9765;
168.9000;0.9662;1.9741;
169.2000;0.9646;1.9765;
169.5000;0.9654;1.9838;
169.8000;0.9646;1.9838;
170.1000;0.9621;1.9814;
170.4000;0.9646;1.9911;
170.7000;0.9621;1.9716;
171.0000;0.9654;1.9814;
171.3000;0.9719;1.9984;
171.6000;0.9719;1.9935;
171.9000;0.9654;1.9838;
172.2000;0.9605;1.9814;
172.5000;0.9662;1.9935;
172.8000;0.9695;1.9984;
173.1000;0.9662;1.9911;
173.4000;0.9646;1.9862;
173.7000;0.9630;1.9741;
174.0000;0.9654;1.9741;
174.3000;0.9638;1.9692;
174.6000;0.9646;1.9814;
174.9000;0.9646;1.9789;
175.2000;0.9646;1.9692;
175.5000;0.9589;1.9546;
175.8000;0.9654;1.9741;
176.1000;0.9687;1.9862;
176.4000;0.9646;1.9668;
176.7000;0.9646;1.9644;
177.0000;0.9621;1.9546;
177.3000;0.9654;1.9692;
177.6000;0.9654;1.9692;
177.9000;0.9654;1.9644;
178.2000;0.9646;1.9595;
178.5000;0.9646;1.9595;
178.8000;0.9646;1.9546;
179.1000;0.9654;1.9546;
179.4000;0.9646;1.9522;
179.7000;0.9646;1.9522;
180.0000;0.9678;1.9571;
180.3000;0.9662;1.9546;
180.6000;0.9654;1.9498;
180.9000;0.9630;1.9571;
181.2000;0.9654;1.9692;
181.5000;0.9646;1.9716;
181.8000;0.9638;1.9741;
182.1000;0.9703;1.9959;
182.4000;0.9654;1.9814;
182.7000;0.9654;1.9862;
183.0000;0.9670;1.9838;
183.3000;0.9662;1.9716;
183.6000;0.9638;1.9668;
183.9000;0.9654;1.9716;
184.2000;0.9687;1.9814;
184.5000;0.9719;1.9959;
184.8000;0.9670;1.9838;
185.1000;0.9678;1.9814;
185.4000;0.9646;1.9741;
185.7000;0.9654;1.9716;
186.0000;0.9646;1.9741;
186.3000;0.9662;1.9862;
186.6000;0.9630;1.9838;
186.9000;0.9646;1.9814;
187.2000;0.9654;1.9911;
187.5000;0.9630;1.9886;
187.8000;0.9638;1.9935;
188.1000;0.9638;1.9862;
188.4000;0.9638;1.9886;
188.7000;0.9654;1.9984;
189.0000;0.9646;1.9959;
189.3000;0.9654;1.9911;
189.6000;0.9646;1.9838;
189.9000;0.9638;1.9814;
190.2000;0.9646;1.9716;
190.5000;0.9654;1.9644;
190.8000;0.9621;1.9595;
191.1000;0.9621;1.9644;
191.4000;0.9670;1.9741;
191.7000;0.9646;1.9668;
192.0000;0.9630;1.9595;
192.3000;0.9646;1.9668;
192.6000;0.9662;1.9741;
192.9000;0.9638;1.9692;
193.2000;0.9613;1.9692;
193.5000;0.9670;1.9789;
193.8000;0.9613;1.9668;
194.1000;0.9662;1.9838;
194.4000;0.9630;1.9741;
194.7000;0.9678;1.9789;
195.0000;0.9654;1.9838;
195.3000;0.9621;1.9838;
195.6000;0.9589;1.9716;
195.9000;0.9630;1.9789;
196.2000;0.9630;1.9814;
196.5000;0.9638;1.9886;
196.8000;0.9605;1.9838;
197.1000;0.9630;1.9814;
197.4000;0.9621;1.9814;
197.7000;0.9630;1.9814;
198.0000;0.9646;1.9838;
198.3000;0.9630;1.9911;
198.6000;0.9646;1.9959;
198.9000;0.9646;1.9935;
199.2000;0.9638;1.9862;
199.5000;0.9687;1.9935;
199.8000;0.9630;1.9789;
200.1000;0.9646;1.9935;
200.4000;0.9638;1.9886;
200.7000;0.9654;1.9911;
201.0000;0.9654;1.9814;
201.3000;0.9638;1.9814;
201.6000;0.9654;1.9862;
201.9000;0.9662;1.9935;
202.2000;0.9646;1.9911;
202.5000;0.9638;1.9911;
202.8000;0.9654;1.9935;
203.1000;0.9638;1.9862;
203.4000;0.9646;1.9959;
203.7000;0.9646;1.9959;
204.0000;0.9646;2.0032;
204.3000;0.9646;1.9935;
204.6000;0.9646;2.0032;
204.9000;0.9630;1.9984;
205.2000;0.9654;2.0032;
205.5000;0.9646;2.0105;
205.8000;0.9556;1.9959;
206.1000;0.9638;2.0129;
206.4000;0.9654;2.0129;
206.7000;0.9662;2.0081;
207.0000;0.9638;1.9984;
207.3000;0.9630;1.9886;
207.6000;0.9621;1.9911;
207.9000;0.9630;1.9862;
208.2000;0.9654;1.9862;
208.5000;0.9678;2.0008;
208.8000;0.9597;1.9862;
209.1000;0.9687;2.0178;
209.4000;0.9630;2.0056;
209.7000;0.9646;2.0008;
210.0000;0.9646;1.9959;
210.3000;0.9646;1.9935;
210.6000;0.9662;1.9935;
210.9000;0.9654;1.9935;
211.2000;0.9646;1.9862;
211.5000;0.9638;1.9814;
211.8000;0.9638;1.9886;
212.1000;0.9638;1.9765;
212.4000;0.9638;1.9668;
212.7000;0.9621;1.9619;
213.0000;0.9630;1.9668;
213.3000;0.9638;1.9595;
213.6000;0.9638;1.9692;
213.9000;0.9638;1.9692;
214.2000;0.9638;1.9716;
214.5000;0.9646;1.9741;
214.8000;0.9638;1.9741;
215.1000;0.9646;1.9741;
215.4000;0.9638;1.9862;
215.7000;0.9654;1.9959;
216.0000;0.9646;1.9838;
216.3000;0.9630;1.9765;
216.6000;0.9638;1.9741;
216.9000;0.9646;1.9716;
217.2000;0.9638;1.9668;
217.5000;0.9621;1.9741;
217.8000;0.9638;1.9886;
218.1000;0.9646;1.9789;
218.4000;0.9638;1.9716;
218.7000;0.9630;1.9644;
219.0000;0.9638;1.9595;
219.3000;0.9638;1.9571;
219.6000;0.9646;1.9619;
219.9000;0.9646;1.9692;
220.2000;0.9605;1.9595;
220.5000;0.9654;1.9644;
220.8000;0.9646;1.9741;
221.1000;0.9638;1.9789;
221.4000;0.9646;1.9741;
221.7000;0.9630;1.9838;
222.0000;0.9630;1.9862;
222.3000;0.9638;1.9935;
222.6000;0.9630;1.9911;
222.9000;0.9630;1.9886;
223.2000;0.9589;1.9838;
223.5000;0.9654;1.9911;
223.8000;0.9613;1.9838;
224.1000;0.9630;1.9984;
224.4000;0.9638;1.9959;
224.7000;0.9670;1.9984;
225.0000;0.9630;1.9814;
225.3000;0.9646;1.9886;
225.6000;0.9621;1.9814;
225.9000;0.9630;1.9814;
226.2000;0.9646;1.9741;
226.5000;0.9646;1.9862;
226.8000;0.9638;1.9814;
227.1000;0.9613;1.9789;
227.4000;0.9630;1.9935;
227.7000;0.9613;1.9911;
228.0000;0.9605;1.9886;
228.3000;0.9638;1.9959;
228.6000;0.9621;1.9984;
228.9000;0.9638;2.0032;
229.2000;0.9638;1.9959;
229.5000;0.9654;1.9984;
229.8000;0.9638;1.9984;
230.1000;0.9646;2.0008;
230.4000;0.9630;1.9935;
230.7000;0.9621;1.9886;
231.0000;0.9638;1.9886;
231.3000;0.9646;1.9911;
231.6000;0.9638;1.9862;
231.9000;0.9630;1.9814;
232.2000;0.9630;1.9741;
232.5000;0.9630;1.9886;
232.8000;0.9613;1.9959;
233.1000;0.9621;1.9935;
233.4000;0.9621;1.9959;
233.7000;0.9662;2.0032;
234.0000;0.9638;1.9984;
234.3000;0.9621;1.9984;
234.6000;0.9630;1.9886;
234.9000;0.9613;1.9862;
235.2000;0.9646;1.9886;
235.5000;0.9638;1.9838;
235.8000;0.9621;1.9814;
236.1000;0.9646;1.9814;
236.4000;0.9646;1.9765;
236.7000;0.9630;1.9789;
237.0000;0.9630;1.9741;
237.3000;0.9646;1.9692;
237.6000;0.9646;1.9668;
237.9000;0.9638;1.9619;
238.2000;0.9613;1.9644;
238.5000;0.9621;1.9644;
238.8000;0.9613;1.9668;
239.1000;0.9638;1.9716;
239.4000;0.9621;1.9668;
239.7000;0.9621;1.9716;
240.0000;0.9605;1.9619;
240.3000;0.9613;1.9668;
240.6000;0.9654;1.9741;
240.9000;0.9630;1.9741;
241.2000;0.9621;1.9765;
241.5000;0.9630;1.9789;
241.8000;0.9638;1.9789;
242.1000;0.9621;1.9838;
242.4000;0.9630;1.9838;
242.7000;0.9646;1.9911;
243.0000;0.9630;1.9911;
243.3000;0.9613;1.9862;
243.6000;0.9621;1.9862;
243.9000;0.9678;1.9935;
244.2000;0.9630;1.9862;
244.5000;0.9613;1.9886;
244.8000;0.9605;1.9862;
245.1000;0.9630;1.9814;
245.4000;0.9646;1.9765;
245.7000;0.9630;1.9716;
246.0000;0.9695;1.9814;
246.3000;0.9638;1.9716;
246.6000;0.9638;1.9692;
246.9000;0.9638;1.9741;
247.2000;0.9621;1.9619;
247.5000;0.9630;1.9644;
247.8000;0.9638;1.9644;
248.1000;0.9630;1.9644;
248.4000;0.9638;1.9644;
248.7000;0.9630;1.9619;
249.0000;0.9621;1.9692;
249.3000;0.9621;1.9668;
249.6000;0.9638;1.9644;
249.9000;0.9646;1.9716;
250.2000;0.9646;1.9741;
250.5000;0.9654;1.9741;
250.8000;0.9621;1.9668;
251.1000;0.9613;1.9692;
251.4000;0.9646;1.9644;
251.7000;0.9654;1.9741;
252.0000;0.9646;1.9741;
252.3000;0.9630;1.9741;
252.6000;0.9638;1.9814;
252.9000;0.9638;1.9838;
253.2000;0.9646;1.9862;
253.5000;0.9621;1.9886;
253.8000;0.9630;1.9814;
254.1000;0.9638;1.9765;
254.4000;0.9646;1.9765;
254.7000;0.9638;1.9716;
255.0000;0.9638;1.9741;
255.3000;0.9646;1.9692;
255.6000;0.9589;1.9571;
255.9000;0.9621;1.9619;
256.2000;0.9621;1.9571;
256.5000;0.9654;1.9644;
256.8000;0.9646;1.9546;
257.1000;0.9662;1.9595;
257.4000;0.9638;1.9644;
257.7000;0.9638;1.9595;
258.0000;0.9638;1.9522;
258.3000;0.9638;1.9546;
258.6000;0.9613;1.9498;
258.9000;0.9597;1.9522;
259.2000;0.9638;1.9644;
259.5000;0.9638;1.9692;
259.8000;0.9556;1.9522;
260.1000;0.9613;1.9571;
260.4000;0.9621;1.9595;
260.7000;0.9581;1.9498;
261.0000;0.9678;1.9716;
261.3000;0.9605;1.9619;
261.6000;0.9654;1.9741;
261.9000;0.9646;1.9644;
262.2000;0.9654;1.9595;
262.5000;0.9630;1.9474;
262.8000;0.9662;1.9546;
263.1000;0.9621;1.9425;
263.4000;0.9662;1.9595;
263.7000;0.9605;1.9425;
264.0000;0.9630;1.9498;
264.3000;0.9621;1.9498;
264.6000;0.9621;1.9546;
264.9000;0.9621;1.9522;
265.2000;0.9613;1.9498;
265.5000;0.9597;1.9449;
265.8000;0.9630;1.9619;
266.1000;0.9613;1.9546;
266.4000;0.9621;1.9571;
266.7000;0.9630;1.9619;
267.0000;0.9646;1.9716;
267.3000;0.9630;1.9765;
267.6000;0.9597;1.9644;
267.9000;0.9638;1.9595;
268.2000;0.9638;1.9668;
268.5000;0.9621;1.9595;
268.8000;0.9556;1.9449;
269.1000;0.9605;1.9546;
269.4000;0.9621;1.9546;
269.7000;0.9630;1.9546;
270.0000;0.9638;1.9571;
270.3000;0.9621;1.9595;
270.6000;0.9630;1.9571;
270.9000;0.9711;1.9765;
271.2000;0.9638;1.9522;
271.5000;0.9630;1.9546;
271.8000;0.9646;1.9595;
272.1000;0.9621;1.9571;
272.4000;0.9638;1.9741;
272.7000;0.9654;1.9789;
273.0000;0.9646;1.9668;
273.3000;0.9638;1.9644;
273.6000;0.9638;1.9668;
273.9000;0.9613;1.9571;
274.2000;0.9638;1.9619;
274.5000;0.9646;1.9668;
274.8000;0.9621;1.9595;
275.1000;0.9630;1.9474;
275.4000;0.9630;1.9401;
275.7000;0.9646;1.9401;
276.0000;0.9670;1.9522;
276.3000;0.9621;1.9328;
276.6000;0.9638;1.9352;
276.9000;0.9589;1.9255;
277.2000;0.9630;1.9377;
277.5000;0.9621;1.9474;
277.8000;0.9630;1.9474;
278.1000;0.9613;1.9425;
278.4000;0.9621;1.9474;
278.7000;0.9638;1.9595;
279.0000;0.9613;1.9522;
279.3000;0.9605;1.9498;
279.6000;0.9597;1.9474;
279.9000;0.9613;1.9522;
280.2000;0.9678;1.9741;
280.5000;0.9605;1.9522;
280.8000;0.9621;1.9595;
281.1000;0.9613;1.9595;
281.4000;0.9630;1.9668;
281.7000;0.9613;1.9668;
282.0000;0.9654;1.9765;
282.3000;0.9638;1.9789;
282.6000;0.9621;1.9862;
282.9000;0.9621;1.9838;
283.2000;0.9630;1.9838;
283.5000;0.9695;1.9984;
283.8000;0.9638;1.9862;
284.1000;0.9630;1.9741;
284.4000;0.9638;1.9741;
284.7000;0.9638;1.9668;
285.0000;0.9630;1.9716;
285.3000;0.9621;1.9619;
285.6000;0.9630;1.9546;
285.9000;0.9621;1.9522;
286.2000;0.9638;1.9498;
286.5000;0.9638;1.9498;
286.8000;0.9613;1.9498;
287.1000;0.9630;1.9522;
287.4000;0.9638;1.9644;
287.7000;0.9613;1.9546;
288.0000;0.9621;1.9595;
288.3000;0.9605;1.9692;
288.6000;0.9605;1.9668;
288.9000;0.9605;1.9644;
289.2000;0.9621;1.9619;
289.5000;0.9532;1.9474;
289.8000;0.9621;1.9644;
290.1000;0.9630;1.9644;
290.4000;0.9613;1.9571;
290.7000;0.9621;1.9498;
291.0000;0.9605;1.9546;
291.3000;0.9613;1.9571;
291.6000;0.9711;1.9789;
291.9000;0.9597;1.9474;
292.2000;0.9605;1.9474;
292.5000;0.9613;1.9498;
292.8000;0.9605;1.9425;
293.1000;0.9605;1.9401;
293.4000;0.9621;1.9401;
293.7000;0.9621;1.9401;
294.0000;0.9621;1.9449;
294.3000;0.9613;1.9377;
294.6000;0.9605;1.9255;
294.9000;0.9638;1.9425;
295.2000;0.9621;1.9449;
295.5000;0.9630;1.9546;
295.8000;0.9621;1.9546;
296.1000;0.9613;1.9571;
296.4000;0.9630;1.9595;
296.7000;0.9638;1.9522;
297.0000;0.9638;1.9498;
297.3000;0.9638;1.9522;
297.6000;0.9630;1.9619;
297.9000;0.9687;1.9886;
298.2000;0.9638;1.9814;
298.5000;0.9638;1.9814;
298.8000;0.9630;1.9741;
299.1000;0.9630;1.9789;
299.4000;0.9621;1.9789;
299.7000;0.9589;1.9668;
300.0000;0.9605;1.9765;
300.3000;0.9621;1.9789;
300.6000;0.9646;1.9838;
300.9000;0.9646;1.9716;
301.2000;0.9621;1.9668;
301.5000;0.9573;1.9619;
301.8000;0.9621;1.9765;
302.1000;0.9638;1.9789;
302.4000;0.9605;1.9716;
302.7000;0.9703;1.9935;
303.0000;0.9630;1.9644;
303.3000;0.9621;1.9692;
303.6000;0.9605;1.9644;
303.9000;0.9613;1.9741;
304.2000;0.9630;1.9765;
304.5000;0.9638;1.9765;
304.8000;0.9613;1.9716;
305.1000;0.9621;1.9765;
305.4000;0.9638;1.9838;
305.7000;0.9654;1.9911;
306.0000;0.9638;1.9862;
306.3000;0.9638;1.9862;
306.6000;0.9703;1.9935;
306.9000;0.9589;1.9741;
307.2000;0.9597;1.9644;
307.5000;0.9613;1.9692;
307.8000;0.9621;1.9741;
308.1000;0.9630;1.9741;
308.4000;0.9630;1.9595;
308.7000;0.9605;1.9522;
309.0000;0.9556;1.9425;
309.3000;0.9646;1.9619;
309.6000;0.9638;1.9571;
309.9000;0.9638;1.9546;
310.2000;0.9638;1.9546;
310.5000;0.9638;1.9522;
310.8000;0.9638;1.9498;
311.1000;0.9654;1.9546;
311.4000;0.9613;1.9522;
311.7000;0.9646;1.9644;
312.0000;0.9646;1.9668;
312.3000;0.9605;1.9595;
312.6000;0.9621;1.9571;
312.9000;0.9605;1.9595;
313.2000;0.9613;1.9595;
313.5000;0.9605;1.9522;
313.8000;0.9621;1.9522;
314.1000;0.9646;1.9522;
314.4000;0.9613;1.9474;
314.7000;0.9646;1.9546;
315.0000;0.9621;1.9522;
315.3000;0.9613;1.9522;
315.6000;0.9638;1.9546;
315.9000;0.9621;1.9474;
316.2000;0.9621;1.9522;
316.5000;0.9613;1.9546;
316.8000;0.9621;1.9595;
317.1000;0.9646;1.9668;
317.4000;0.9638;1.9619;
317.7000;0.9573;1.9425;
318.0000;0.9735;1.9741;
318.3000;0.9638;1.9474;
318.6000;0.9621;1.9401;
318.9000;0.9621;1.9425;
319.2000;0.9621;1.9449;
319.5000;0.9630;1.9449;
319.8000;0.9638;1.9546;
320.1000;0.9621;1.9474;
320.4000;0.9621;1.9571;
320.7000;0.9621;1.9595;
321.0000;0.9621;1.9571;
321.3000;0.9613;1.9522;
321.6000;0.9605;1.9595;
321.9000;0.9630;1.9595;
322.2000;0.9613;1.9474;
322.5000;0.9613;1.9522;
322.8000;0.9613;1.9474;
323.1000;0.9613;1.9425;
323.4000;0.9621;1.9401;
323.7000;0.9613;1.9255;
324.0000;0.9605;1.9231;
324.3000;0.9589;1.9279;
324.6000;0.9630;1.9401;
324.9000;0.9638;1.9474;
325.2000;0.9565;1.9304;
325.5000;0.9605;1.9401;
325.8000;0.9621;1.9498;
326.1000;0.9605;1.9546;
326.4000;0.9605;1.9595;
326.7000;0.9613;1.9571;
327.0000;0.9597;1.9522;
327.3000;0.9556;1.9498;
327.6000;0.9621;1.9692;
327.9000;0.9605;1.9668;
328.2000;0.9670;1.9668;
328.5000;0.9581;1.9474;
328.8000;0.9630;1.9644;
329.1000;0.9638;1.9668;
329.4000;0.9605;1.9716;
329.7000;0.9630;1.9692;
330.0000;0.9646;1.9668;
330.3000;0.9589;1.9571;
330.6000;0.9613;1.9668;
330.9000;0.9638;1.9741;
331.2000;0.9646;1.9814;
331.5000;0.9621;1.9789;
331.8000;0.9613;1.9789;
332.1000;0.9605;1.9716;
332.4000;0.9605;1.9595;
332.7000;0.9605;1.9522;
333.0000;0.9670;1.9644;
333.3000;0.9687;1.9741;
333.6000;0.9630;1.9546;
333.9000;0.9589;1.9449;
334.2000;0.9621;1.9595;
334.5000;0.9605;1.9571;
334.8000;0.9548;1.9328;
335.1000;0.9581;1.9449;
335.4000;0.9605;1.9522;
335.7000;0.9630;1.9474;
336.0000;0.9581;1.9377;
336.3000;0.9613;1.9449;
336.6000;0.9605;1.9498;
336.9000;0.9613;1.9522;
337.2000;0.9613;1.9498;
337.5000;0.9613;1.9449;
337.8000;0.9630;1.9546;
338.1000;0.9613;1.9522;
338.4000;0.9597;1.9498;
338.7000;0.9638;1.9644;
339.0000;0.9597;1.9619;
339.3000;0.9597;1.9522;
339.6000;0.9605;1.9522;
339.9000;0.9613;1.9595;
340.2000;0.9613;1.9692;
340.5000;0.9613;1.9716;
340.8000;0.9613;1.9644;
341.1000;0.9605;1.9644;
341.4000;0.9605;1.9668;
341.7000;0.9621;1.9668;
342.0000;0.9621;1.9644;
342.3000;0.9613;1.9595;
342.6000;0.9613;1.9522;
342.9000;0.9605;1.9474;
343.2000;0.9630;1.9377;
343.5000;0.9605;1.9304;
343.8000;0.9621;1.9328;
344.1000;0.9597;1.9231;
344.4000;0.9605;1.9328;
344.7000;0.9597;1.9377;
345.0000;0.9605;1.9401;
345.3000;0.9605;1.9425;
345.6000;0.9597;1.9449;
345.9000;0.9613;1.9522;
346.2000;0.9613;1.9449;
346.5000;0.9605;1.9474;
346.8000;0.9605;1.9449;
347.1000;0.9589;1.9352;
347.4000;0.9597;1.9401;
347.7000;0.9605;1.9401;
348.0000;0.9630;1.9498;
348.3000;0.9646;1.9425;
348.6000;0.9605;1.9352;
348.9000;0.9556;1.9255;
349.2000;0.9581;1.9328;
349.5000;0.9613;1.9377;
349.8000;0.9613;1.9377;
350.1000;0.9630;1.9425;
350.4000;0.9678;1.9619;
350.7000;0.9621;1.9498;
351.0000;0.9613;1.9425;
351.3000;0.9630;1.9377;
351.6000;0.9548;1.9279;
351.9000;0.9646;1.9498;
352.2000;0.9565;1.9255;
352.5000;0.9613;1.9425;
352.8000;0.9597;1.9304;
353.1000;0.9630;1.9401;
353.4000;0.9630;1.9377;
353.7000;0.9613;1.9377;
354.0000;0.9597;1.9425;
354.3000;0.9621;1.9377;
354.6000;0.9605;1.9304;
354.9000;0.9638;1.9377;
355.2000;0.9613;1.9377;
355.5000;0.9605;1.9377;
355.8000;0.9613;1.9352;
356.1000;0.9613;1.9304;
356.4000;0.9597;1.9255;
356.7000;0.9605;1.9352;
357.0000;0.9613;1.9474;
357.3000;0.9621;1.9474;
357.6000;0.9605;1.9474;
357.9000;0.9638;1.9522;
358.2000;0.9654;1.9571;
358.5000;0.9605;1.9474;
358.8000;0.9605;1.9401;
359.1000;0.9605;1.9377;
359.4000;0.9613;1.9377;
359.7000;0.9605;1.9401;
360.0000;0.9621;1.9377;
360.3000;0.9613;1.9401;
360.6000;0.9621;1.9401;
360.9000;0.9646;1.9425;
361.2000;0.9630;1.9449;
361.5000;0.9597;1.9425;
361.8000;0.9621;1.9498;
362.1000;0.9621;1.9522;
362.4000;0.9621;1.9571;
362.7000;0.9597;1.9522;
363.0000;0.9613;1.9644;
363.3000;0.9621;1.9644;
363.6000;0.9573;1.9571;
363.9000;0.9630;1.9595;
364.2000;0.9630;1.9546;
364.5000;0.9638;1.9571;
364.8000;0.9678;1.9595;
365.1000;0.9621;1.9546;
365.4000;0.9613;1.9571;
365.7000;0.9621;1.9522;
366.0000;0.9613;1.9619;
366.3000;0.9613;1.9668;
366.6000;0.9621;1.9692;
366.9000;0.9630;1.9644;
367.2000;0.9638;1.9619;
367.5000;0.9630;1.9716;
367.8000;0.9613;1.9668;
368.1000;0.9630;1.9619;
368.4000;0.9621;1.9595;
368.7000;0.9630;1.9546;
369.0000;0.9630;1.9522;
369.3000;0.9613;1.9474;
369.6000;0.9646;1.9619;
369.9000;0.9605;1.9546;
370.2000;0.9605;1.9522;
370.5000;0.9605;1.9546;
370.8000;0.9605;1.9595;
371.1000;0.9638;1.9765;
371.4000;0.9597;1.9668;
371.7000;0.9605;1.9716;
372.0000;0.9638;1.9814;
372.3000;0.9556;1.9619;
372.6000;0.9573;1.9692;
372.9000;0.9613;1.9765;
373.2000;0.9613;1.9716;
373.5000;0.9613;1.9619;
373.8000;0.9597;1.9595;
374.1000;0.9581;1.9498;
374.4000;0.9573;1.9449;
374.7000;0.9605;1.9498;
375.0000;0.9654;1.9644;
375.3000;0.9597;1.9522;
375.6000;0.9687;1.9838;
375.9000;0.9548;1.9522;
376.2000;0.9621;1.9644;
376.5000;0.9613;1.9571;
376.8000;0.9621;1.9595;
377.1000;0.9621;1.9546;
377.4000;0.9621;1.9571;
377.7000;0.9613;1.9546;
378.0000;0.9605;1.9522;
378.3000;0.9613;1.9546;
378.6000;0.9621;1.9668;
378.9000;0.9711;1.9935;
379.2000;0.9589;1.9644;
379.5000;0.9613;1.9741;
379.8000;0.9654;1.9862;
380.1000;0.9613;1.9741;
380.4000;0.9605;1.9741;
380.7000;0.9597;1.9692;
381.0000;0.9613;1.9814;
381.3000;0.9532;1.9571;
381.6000;0.9613;1.9789;
381.9000;0.9613;1.9838;
382.2000;0.9605;1.9741;
382.5000;0.9621;1.9716;
382.8000;0.9605;1.9644;
383.1000;0.9613;1.9595;
383.4000;0.9613;1.9595;
383.7000;0.9687;1.9814;
384.0000;0.9613;1.9716;
384.3000;0.9605;1.9741;
384.6000;0.9605;1.9716;
384.9000;0.9613;1.9814;
385.2000;0.9605;1.9789;
385.5000;0.9613;1.9741;
385.8000;0.9589;1.9716;
386.1000;0.9613;1.9741;
386.4000;0.9605;1.9741;
386.7000;0.9630;1.9741;
387.0000;0.9597;1.9668;
387.3000;0.9597;1.9716;
387.6000;0.9548;1.9474;
387.9000;0.9630;1.9595;
388.2000;0.9613;1.9498;
388.5000;0.9613;1.9522;
388.8000;0.9630;1.9522;
389.1000;0.9621;1.9522;
389.4000;0.9597;1.9522;
389.7000;0.9597;1.9595;
390.0000;0.9605;1.9644;
390.3000;0.9613;1.9619;
390.6000;0.9589;1.9474;
390.9000;0.9589;1.9449;
391.2000;0.9605;1.9425;
391.5000;0.9597;1.9474;
391.8000;0.9605;1.9571;
392.1000;0.9581;1.9522;
392.4000;0.9597;1.9571;
392.7000;0.9597;1.9644;
393.0000;0.9605;1.9716;
393.3000;0.9630;1.9741;
393.6000;0.9613;1.9619;
393.9000;0.9605;1.9546;
394.2000;0.9597;1.9619;
394.5000;0.9605;1.9692;
394.8000;0.9581;1.9692;
395.1000;0.9605;1.9619;
395.4000;0.9605;1.9619;
395.7000;0.9605;1.9644;
396.0000;0.9581;1.9644;
396.3000;0.9605;1.9668;
396.6000;0.9605;1.9692;
396.9000;0.9589;1.9571;
397.2000;0.9597;1.9595;
397.5000;0.9613;1.9668;
397.8000;0.9605;1.9692;
398.1000;0.9605;1.9692;
398.4000;0.9613;1.9668;
398.7000;0.9605;1.9644;
399.0000;0.9605;1.9571;
399.3000;0.9605;1.9571;
399.6000;0.9605;1.9644;
399.9000;0.9621;1.9692;
400.2000;0.9613;1.9716;
400.5000;0.9605;1.9668;
400.8000;0.9605;1.9741;
401.1000;0.9597;1.9692;
401.4000;0.9597;1.9692;
401.7000;0.9605;1.9668;
402.0000;0.9613;1.9668;
402.3000;0.9621;1.9644;
402.6000;0.9621;1.9619;
402.9000;0.9621;1.9595;
403.2000;0.9613;1.9619;
403.5000;0.9605;1.9571;
403.8000;0.9597;1.9571;
404.1000;0.9695;1.9814;
404.4000;0.9613;1.9741;
404.7000;0.9581;1.9741;
405.0000;0.9597;1.9789;
405.3000;0.9597;1.9741;
405.6000;0.9630;1.9765;
405.9000;0.9597;1.9692;
406.2000;0.9597;1.9619;
406.5000;0.9573;1.9644;
406.8000;0.9605;1.9765;
407.1000;0.9605;1.9838;
407.4000;0.9638;1.9959;
407.7000;0.9589;1.9765;
408.0000;0.9605;1.9765;
408.3000;0.9597;1.9716;
408.6000;0.9548;1.9546;
408.9000;0.9589;1.9619;
409.2000;0.9613;1.9619;
409.5000;0.9638;1.9741;
409.8000;0.9589;1.9716;
410.1000;0.9687;1.9935;
410.4000;0.9613;1.9765;
410.7000;0.9589;1.9765;
411.0000;0.9597;1.9741;
411.3000;0.9589;1.9716;
411.6000;0.9638;1.9838;
411.9000;0.9597;1.9838;
412.2000;0.9605;1.9862;
412.5000;0.9605;1.9814;
412.8000;0.9565;1.9716;
413.1000;0.9605;1.9862;
413.4000;0.9613;1.9886;
413.7000;0.9605;1.9886;
414.0000;0.9597;1.9765;
414.3000;0.9597;1.9765;
414.6000;0.9630;1.9765;
414.9000;0.9605;1.9741;
415.2000;0.9638;1.9765;
415.5000;0.9613;1.9741;
415.8000;0.9589;1.9644;
416.1000;0.9621;1.9765;
416.4000;0.9613;1.9716;
416.7000;0.9597;1.9716;
417.0000;0.9613;1.9668;
417.3000;0.9597;1.9619;
417.6000;0.9605;1.9668;
417.9000;0.9605;1.9644;
418.2000;0.9613;1.9668;
418.5000;0.9613;1.9644;
418.8000;0.9581;1.9546;
419.1000;0.9646;1.9741;
419.4000;0.9597;1.9619;
419.7000;0.9638;1.9644;
420.0000;0.9605;1.9571;
420.3000;0.9605;1.9571;
420.6000;0.9597;1.9595;
420.9000;0.9605;1.9668;
421.2000;0.9589;1.9716;
421.5000;0.9605;1.9644;
421.8000;0.9589;1.9522;
422.1000;0.9613;1.9619;
422.4000;0.9605;1.9619;
422.7000;0.9573;1.9571;
423.0000;0.9621;1.9765;
423.3000;0.9613;1.9765;
423.6000;0.9621;1.9741;
423.9000;0.9621;1.9789;
424.2000;0.9605;1.9741;
424.5000;0.9589;1.9765;
424.8000;0.9613;1.9716;
425.1000;0.9573;1.9595;
425.4000;0.9621;1.9716;
425.7000;0.9581;1.9595;
426.0000;0.9597;1.9595;
426.3000;0.9613;1.9619;
426.6000;0.9605;1.9546;
426.9000;0.9589;1.9571;
427.2000;0.9548;1.9546;
427.5000;0.9597;1.9644;
427.8000;0.9597;1.9668;
428.1000;0.9621;1.9716;
428.4000;0.9654;1.9789;
428.7000;0.9621;1.9595;
429.0000;0.9548;1.9522;
429.3000;0.9621;1.9668;
429.6000;0.9613;1.9644;
429.9000;0.9646;1.9789;
430.2000;0.9630;1.9741;
430.5000;0.9605;1.9692;
430.8000;0.9597;1.9814;
431.1000;0.9613;1.9935;
431.4000;0.9670;2.0008;
431.7000;0.9605;1.9911;
432.0000;0.9613;1.9984;
432.3000;0.9613;1.9959;
432.6000;0.9597;1.9886;
432.9000;0.9605;1.9838;
433.2000;0.9605;1.9814;
433.5000;0.9613;1.9862;
433.8000;0.9597;1.9886;
434.1000;0.9565;1.9789;
434.4000;0.9581;1.9886;
434.7000;0.9613;1.9862;
435.0000;0.9638;1.9886;
435.3000;0.9605;1.9838;
435.6000;0.9605;1.9838;
435.9000;0.9597;1.9789;
436.2000;0.9597;1.9765;
436.5000;0.9605;1.9862;
436.8000;0.9597;1.9838;
437.1000;0.9581;1.9765;
437.4000;0.9621;1.9838;
437.7000;0.9605;1.9789;
438.0000;0.9605;1.9765;
438.3000;0.9597;1.9716;
438.6000;0.9605;1.9765;
438.9000;0.9589;1.9765;
439.2000;0.9605;1.9838;
439.5000;0.9613;1.9814;
439.8000;0.9597;1.9862;
440.1000;0.9613;1.9814;
440.4000;0.9621;1.9765;
440.7000;0.9589;1.9644;
441.0000;0.9605;1.9619;
441.3000;0.9581;1.9595;
441.6000;0.9613;1.9741;
441.9000;0.9589;1.9692;
442.2000;0.9573;1.9692;
442.5000;0.9589;1.9814;
442.8000;0.9565;1.9741;
443.1000;0.9638;1.9935;
443.4000;0.9654;2.0056;
443.7000;0.9597;1.9838;
444.0000;0.9565;1.9692;
444.3000;0.9597;1.9716;
444.6000;0.9621;1.9789;
444.9000;0.9654;1.9814;
445.2000;0.9581;1.9716;
445.5000;0.9613;1.9692;
445.8000;0.9597;1.9741;
446.1000;0.9613;1.9765;
446.4000;0.9581;1.9692;
446.7000;0.9597;1.9741;
447.0000;0.9589;1.9716;
447.3000;0.9581;1.9644;
447.6000;0.9589;1.9595;
447.9000;0.9548;1.9522;
448.2000;0.9613;1.9668;
448.5000;0.9581;1.9644;
448.8000;0.9556;1.9619;
449.1000;0.9573;1.9619;
449.4000;0.9581;1.9692;
449.7000;0.9565;1.9571;
450.0000;0.9565;1.9668;
450.3000;0.9597;1.9716;
450.6000;0.9613;1.9692;
450.9000;0.9605;1.9668;
451.2000;0.9573;1.9644;
451.5000;0.9605;1.9692;
451.8000;0.9605;1.9716;
452.1000;0.9573;1.9668;
452.4000;0.9597;1.9716;
452.7000;0.9597;1.9741;
453.0000;0.9597;1.9789;
453.3000;0.9597;1.9814;
453.6000;0.9597;1.9886;
453.9000;0.9613;1.9838;
454.2000;0.9597;1.9862;
454.5000;0.9605;1.9838;
454.8000;0.9597;1.9765;
455.1000;0.9597;1.9741;
455.4000;0.9605;1.9619;
455.7000;0.9597;1.9595;
456.0000;0.9613;1.9571;
456.3000;0.9597;1.9571;
456.6000;0.9597;1.9522;
456.9000;0.9605;1.9522;
457.2000;0.9613;1.9644;
457.5000;0.9597;1.9619;
457.8000;0.9597;1.9595;
458.1000;0.9597;1.9668;
458.4000;0.9613;1.9668;
458.7000;0.9581;1.9595;
459.0000;0.9597;1.9571;
459.3000;0.9605;1.9449;
459.6000;0.9597;1.9449;
459.9000;0.9589;1.9425;
460.2000;0.9589;1.9449;
460.5000;0.9597;1.9474;
460.8000;0.9613;1.9498;
461.1000;0.9613;1.9546;
461.4000;0.9597;1.9449;
461.7000;0.9621;1.9546;
462.0000;0.9630;1.9619;
462.3000;0.9605;1.9474;
462.6000;0.9573;1.9449;
462.9000;0.9621;1.9595;
463.2000;0.9621;1.9571;
463.5000;0.9605;1.9571;
463.8000;0.9597;1.9522;
464.1000;0.9589;1.9522;
464.4000;0.9613;1.9595;
464.7000;0.9605;1.9595;
465.0000;0.9613;1.9522;
465.3000;0.9605;1.9571;
465.6000;0.9605;1.9522;
465.9000;0.9630;1.9668;
466.2000;0.9589;1.9668;
466.5000;0.9638;1.9789;
466.8000;0.9638;1.9838;
467.1000;0.9597;1.9765;
467.4000;0.9565;1.9668;
467.7000;0.9589;1.9716;
468.0000;0.9499;1.9474;
468.3000;0.9597;1.9571;
468.6000;0.9597;1.9522;
468.9000;0.9565;1.9474;
469.2000;0.9597;1.9595;
469.5000;0.9581;1.9546;
469.8000;0.9565;1.9546;
470.1000;0.9613;1.9692;
470.4000;0.9613;1.9716;
470.7000;0.9597;1.9668;
471.0000;0.9597;1.9765;
471.3000;0.9597;1.9814;
471.6000;0.9589;1.9716;
471.9000;0.9605;1.9741;
472.2000;0.9621;1.9668;
472.5000;0.9613;1.9692;
472.8000;0.9597;1.9692;
473.1000;0.9597;1.9716;
473.4000;0.9630;1.9862;
473.7000;0.9613;1.9765;
474.0000;0.9589;1.9619;
474.3000;0.9621;1.9571;
474.6000;0.9597;1.9595;
474.9000;0.9589;1.9571;
475.2000;0.9613;1.9619;
475.5000;0.9597;1.9644;
475.8000;0.9597;1.9692;
476.1000;0.9597;1.9741;
476.4000;0.9589;1.9595;
476.7000;0.9516;1.9401;
477.0000;0.9605;1.9498;
477.3000;0.9589;1.9449;
477.6000;0.9621;1.9522;
477.9000;0.9581;1.9474;
478.2000;0.9597;1.9546;
478.5000;0.9597;1.9571;
478.8000;0.9589;1.9522;
479.1000;0.9589;1.9546;
479.4000;0.9589;1.9449;
479.7000;0.9589;1.9449;
480.0000;0.9605;1.9546;
480.3000;0.9573;1.9425;
480.6000;0.9605;1.9401;
480.9000;0.9589;1.9352;
481.2000;0.9581;1.9352;
481.5000;0.9573;1.9401;
481.8000;0.9605;1.9425;
482.1000;0.9589;1.9377;
482.4000;0.9589;1.9498;
482.7000;0.9589;1.9546;
483.0000;0.9581;1.9449;
483.3000;0.9589;1.9425;
483.6000;0.9597;1.9522;
483.9000;0.9605;1.9498;
484.2000;0.9605;1.9425;
484.5000;0.9573;1.9377;
484.8000;0.9589;1.9474;
485.1000;0.9597;1.9546;
485.4000;0.9597;1.9546;
485.7000;0.9605;1.9522;
486.0000;0.9597;1.9522;
486.3000;0.9621;1.9474;
486.6000;0.9605;1.9425;
486.9000;0.9597;1.9352;
487.2000;0.9605;1.9377;
487.5000;0.9605;1.9352;
487.8000;0.9589;1.9352;
488.1000;0.9556;1.9352;
488.4000;0.9597;1.9546;
488.7000;0.9597;1.9595;
489.0000;0.9638;1.9619;
489.3000;0.9581;1.9474;
489.6000;0.9581;1.9377;
489.9000;0.9589;1.9474;
490.2000;0.9589;1.9546;
490.5000;0.9646;1.9716;
490.8000;0.9589;1.9644;
491.1000;0.9556;1.9546;
491.4000;0.9597;1.9644;
491.7000;0.9573;1.9595;
492.0000;0.9581;1.9644;
492.3000;0.9548;1.9498;
492.6000;0.9589;1.9571;
492.9000;0.9597;1.9522;
493.2000;0.9589;1.9619;
493.5000;0.9654;1.9838;
493.8000;0.9589;1.9716;
494.1000;0.9589;1.9741;
494.4000;0.9573;1.9716;
494.7000;0.9589;1.9668;
495.0000;0.9597;1.9644;
495.3000;0.9589;1.9692;
495.6000;0.9589;1.9765;
495.9000;0.9589;1.9765;
496.2000;0.9581;1.9692;
496.5000;0.9597;1.9765;
496.8000;0.9581;1.9765;
497.1000;0.9581;1.9814;
497.4000;0.9581;1.9765;
497.7000;0.9613;1.9886;
498.0000;0.9589;1.9886;
498.3000;0.9524;1.9644;
498.6000;0.9581;1.9789;
498.9000;0.9687;2.0032;
499.2000;0.9516;1.9668;
499.5000;0.9605;1.9814;
499.8000;0.9565;1.9668;
500.1000;0.9589;1.9789;
500.4000;0.9597;1.9765;
500.7000;0.9613;1.9765;
501.0000;0.9573;1.9692;
501.3000;0.9589;1.9668;
501.6000;0.9556;1.9619;
501.9000;0.9597;1.9716;
502.2000;0.9597;1.9571;
502.5000;0.9573;1.9449;
502.8000;0.9597;1.9546;
503.1000;0.9589;1.9546;
503.4000;0.9605;1.9595;
503.7000;0.9613;1.9619;
504.0000;0.9589;1.9644;
504.3000;0.9613;1.9716;
504.6000;0.9589;1.9644;
504.9000;0.9589;1.9716;
505.2000;0.9581;1.9716;
505.5000;0.9589;1.9741;
505.8000;0.9589;1.9862;
506.1000;0.9581;1.9862;
506.4000;0.9581;1.9765;
506.7000;0.9597;1.9741;
507.0000;0.9597;1.9692;
507.3000;0.9573;1.9595;
507.6000;0.9565;1.9619;
507.9000;0.9565;1.9716;
508.2000;0.9605;1.9741;
508.5000;0.9605;1.9765;
508.8000;0.9524;1.9571;
509.1000;0.9597;1.9668;
509.4000;0.9589;1.9716;
509.7000;0.9565;1.9619;
510.0000;0.9589;1.9571;
510.3000;0.9581;1.9546;
510.6000;0.9670;1.9692;
510.9000;0.9581;1.9449;
511.2000;0.9670;1.9692;
511.5000;0.9573;1.9377;
511.8000;0.9589;1.9474;
512.1000;0.9556;1.9401;
512.4000;0.9573;1.9352;
512.7000;0.9581;1.9352;
513.0000;0.9565;1.9328;
513.3000;0.9532;1.9377;
513.6000;0.9605;1.9668;
513.9000;0.9605;1.9716;
514.2000;0.9589;1.9692;
514.5000;0.9597;1.9789;
514.8000;0.9605;1.9716;
515.1000;0.9613;1.9644;
515.4000;0.9589;1.9546;
515.7000;0.9597;1.9546;
516.0000;0.9581;1.9498;
516.3000;0.9556;1.9401;
516.6000;0.9589;1.9522;
516.9000;0.9589;1.9546;
517.2000;0.9621;1.9595;
517.5000;0.9548;1.9474;
517.8000;0.9565;1.9546;
518.1000;0.9581;1.9595;
518.4000;0.9573;1.9546;
518.7000;0.9581;1.9522;
519.0000;0.9565;1.9546;
519.3000;0.9613;1.9668;
519.6000;0.9589;1.9619;
519.9000;0.9589;1.9571;
520.2000;0.9621;1.9668;
520.5000;0.9581;1.9571;
520.8000;0.9589;1.9546;
521.1000;0.9524;1.9352;
521.4000;0.9524;1.9474;
521.7000;0.9556;1.9498;
522.0000;0.9597;1.9498;
522.3000;0.9581;1.9498;
522.6000;0.9581;1.9571;
522.9000;0.9581;1.9571;
523.2000;0.9581;1.9619;
523.5000;0.9581;1.9571;
523.8000;0.9565;1.9522;
524.1000;0.9597;1.9522;
524.4000;0.9589;1.9425;
524.7000;0.9589;1.9401;
525.0000;0.9605;1.9449;
525.3000;0.9573;1.9449;
525.6000;0.9589;1.9522;
525.9000;0.9565;1.9425;
526.2000;0.9581;1.9498;
526.5000;0.9581;1.9401;
526.8000;0.9565;1.9401;
527.1000;0.9573;1.9449;
527.4000;0.9581;1.9546;
527.7000;0.9565;1.9474;
528.0000;0.9516;1.9304;
528.3000;0.9548;1.9498;
528.6000;0.9597;1.9716;
528.9000;0.9581;1.9619;
529.2000;0.9589;1.9668;
529.5000;0.9621;1.9741;
529.8000;0.9589;1.9668;
530.1000;0.9597;1.9668;
530.4000;0.9581;1.9571;
530.7000;0.9565;1.9474;
531.0000;0.9581;1.9522;
531.3000;0.9597;1.9449;
531.6000;0.9597;1.9425;
531.9000;0.9597;1.9401;
532.2000;0.9589;1.9449;
532.5000;0.9581;1.9449;
532.8000;0.9605;1.9498;
533.1000;0.9581;1.9401;
533.4000;0.9589;1.9546;
533.7000;0.9548;1.9449;
534.0000;0.9638;1.9692;
534.3000;0.9581;1.9595;
534.6000;0.9638;1.9765;
534.9000;0.9613;1.9668;
535.2000;0.9581;1.9668;
535.5000;0.9573;1.9619;
535.8000;0.9589;1.9668;
536.1000;0.9540;1.9595;
536.4000;0.9605;1.9716;
536.7000;0.9581;1.9668;
537.0000;0.9589;1.9741;
537.3000;0.9548;1.9668;
537.6000;0.9581;1.9741;
537.9000;0.9589;1.9741;
538.2000;0.9581;1.9692;
538.5000;0.9532;1.9619;
538.8000;0.9621;1.9765;
539.1000;0.9581;1.9644;
539.4000;0.9581;1.9765;
539.7000;0.9605;1.9814;
540.0000;0.9556;1.9668;
540.3000;0.9638;1.9935;
540.6000;0.9654;2.0032;
540.9000;0.9565;1.9814;
541.2000;0.9605;1.9911;
541.5000;0.9589;1.9814;
541.8000;0.9556;1.9668;
542.1000;0.9573;1.9619;
542.4000;0.9573;1.9595;
542.7000;0.9589;1.9571;
543.0000;0.9540;1.9401;
543.3000;0.9573;1.9522;
543.6000;0.9573;1.9571;
543.9000;0.9573;1.9644;
544.2000;0.9613;1.9814;
544.5000;0.9573;1.9765;
544.8000;0.9573;1.9814;
545.1000;0.9573;1.9789;
545.4000;0.9581;1.9838;
545.7000;0.9581;1.9814;
546.0000;0.9597;1.9862;
546.3000;0.9589;1.9789;
546.6000;0.9589;1.9765;
546.9000;0.9605;1.9765;
547.2000;0.9630;1.9886;
547.5000;0.9581;1.9789;
547.8000;0.9654;1.9984;
548.1000;0.9548;1.9716;
548.4000;0.9581;1.9741;
548.7000;0.9548;1.9692;
549.0000;0.9581;1.9765;
549.3000;0.9556;1.9814;
549.6000;0.9565;1.9862;
549.9000;0.9565;1.9862;
550.2000;0.9573;1.9886;
550.5000;0.9589;1.9862;
550.8000;0.9573;1.9838;
551.1000;0.9565;1.9862;
551.4000;0.9565;1.9789;
551.7000;0.9565;1.9838;
552.0000;0.9581;1.9886;
552.3000;0.9573;1.9716;
552.6000;0.9581;1.9765;
552.9000;0.9573;1.9862;
553.2000;0.9565;1.9838;
553.5000;0.9581;1.9886;
553.8000;0.9524;1.9668;
554.1000;0.9573;1.9862;
554.4000;0.9589;1.9838;
554.7000;0.9573;1.9741;
555.0000;0.9581;1.9741;
555.3000;0.9581;1.9692;
555.6000;0.9589;1.9644;
555.9000;0.9605;1.9716;
556.2000;0.9573;1.9619;
556.5000;0.9581;1.9741;
556.8000;0.9540;1.9716;
557.1000;0.9613;1.9911;
557.4000;0.9581;1.9741;
557.7000;0.9581;1.9814;
558.0000;0.9556;1.9789;
558.3000;0.9597;1.9959;
558.6000;0.9597;2.0008;
558.9000;0.9581;1.9935;
559.2000;0.9638;2.0081;
559.5000;0.9556;1.9911;
559.8000;0.9589;2.0008;
560.1000;0.9573;1.9935;
560.4000;0.9646;2.0202;
560.7000;0.9581;2.0008;
561.0000;0.9556;1.9959;
561.3000;0.9524;1.9886;
561.6000;0.9540;2.0056;
561.9000;0.9540;2.0056;
562.2000;0.9556;2.0008;
562.5000;0.9573;2.0081;
562.8000;0.9581;2.0056;
563.1000;0.9573;2.0081;
563.4000;0.9662;2.0202;
563.7000;0.9548;1.9935;
564.0000;0.9581;1.9886;
564.3000;0.9589;1.9959;
564.6000;0.9581;1.9935;
564.9000;0.9573;1.9886;
565.2000;0.9565;1.9838;
565.5000;0.9589;1.9886;
565.8000;0.9589;1.9935;
566.1000;0.9638;2.0032;
566.4000;0.9565;1.9814;
566.7000;0.9581;1.9789;
567.0000;0.9573;1.9789;
567.3000;0.9565;1.9765;
567.6000;0.9581;1.9814;
567.9000;0.9581;1.9741;
568.2000;0.9589;1.9741;
568.5000;0.9597;1.9741;
568.8000;0.9597;1.9692;
569.1000;0.9581;1.9716;
569.4000;0.9556;1.9741;
569.7000;0.9597;1.9814;
570.0000;0.9573;1.9692;
570.3000;0.9532;1.9619;
570.6000;0.9581;1.9741;
570.9000;0.9581;1.9741;
571.2000;0.9565;1.9668;
571.5000;0.9565;1.9644;
571.8000;0.9597;1.9644;
572.1000;0.9573;1.9668;
572.4000;0.9573;1.9644;
572.7000;0.9573;1.9619;
573.0000;0.9589;1.9644;
573.3000;0.9597;1.9692;
573.6000;0.9589;1.9716;
573.9000;0.9589;1.9668;
574.2000;0.9573;1.9668;
574.5000;0.9597;1.9692;
574.8000;0.9565;1.9619;
575.1000;0.9565;1.9498;
575.4000;0.9565;1.9522;
575.7000;0.9589;1.9716;
576.0000;0.9524;1.9692;
576.3000;0.9581;1.9789;
576.6000;0.9581;1.9789;
576.9000;0.9597;1.9765;
577.2000;0.9581;1.9716;
577.5000;0.9589;1.9741;
577.8000;0.9613;1.9838;
578.1000;0.9573;1.9668;
578.4000;0.9589;1.9668;
578.7000;0.9581;1.9692;
579.0000;0.9548;1.9692;
579.3000;0.9565;1.9716;
579.6000;0.9565;1.9692;
579.9000;0.9573;1.9838;
580.2000;0.9581;1.9862;
580.5000;0.9589;1.9862;
580.8000;0.9548;1.9765;
581.1000;0.9589;1.9838;
581.4000;0.9573;1.9789;
581.7000;0.9565;1.9716;
582.0000;0.9573;1.9692;
582.3000;0.9573;1.9765;
582.6000;0.9573;1.9741;
582.9000;0.9573;1.9716;
583.2000;0.9573;1.9619;
583.5000;0.9548;1.9644;
583.8000;0.9565;1.9668;
584.1000;0.9597;1.9765;
584.4000;0.9565;1.9692;
584.7000;0.9613;1.9862;
585.0000;0.9581;1.9862;
585.3000;0.9565;1.9838;
585.6000;0.9589;1.9886;
585.9000;0.9565;1.9862;
586.2000;0.9565;1.9911;
586.5000;0.9621;1.9959;
586.8000;0.9565;1.9862;
587.1000;0.9556;1.9886;
587.4000;0.9581;1.9935;
587.7000;0.9556;1.9814;
588.0000;0.9581;1.9765;
588.3000;0.9548;1.9668;
588.6000;0.9532;1.9571;
588.9000;0.9573;1.9668;
589.2000;0.9573;1.9668;
589.5000;0.9556;1.9595;
589.8000;0.9573;1.9644;
590.1000;0.9573;1.9716;
590.4000;0.9556;1.9644;
590.7000;0.9556;1.9619;
591.0000;0.9565;1.9644;
591.3000;0.9581;1.9692;
591.6000;0.9565;1.9644;
591.9000;0.9556;1.9644;
592.2000;0.9540;1.9619;
592.5000;0.9581;1.9789;
592.8000;0.9581;1.9765;
593.1000;0.9565;1.9741;
593.4000;0.9581;1.9765;
593.7000;0.9573;1.9741;
594.0000;0.9581;1.9814;
594.3000;0.9573;1.9789;
594.6000;0.9548;1.9765;
594.9000;0.9565;1.9814;
595.2000;0.9565;1.9765;
595.5000;0.9565;1.9765;
595.8000;0.9597;1.9741;
596.1000;0.9556;1.9692;
596.4000;0.9556;1.9692;
596.7000;0.9565;1.9741;
597.0000;0.9565;1.9765;
597.3000;0.9565;1.9741;
597.6000;0.9573;1.9789;
597.9000;0.9589;1.9838;
598.2000;0.9581;1.9814;
598.5000;0.9581;1.9838;
598.8000;0.9581;1.9838;
599.1000;0.9581;1.9886;
599.4000;0.9556;1.9789;
599.7000;0.9573;1.9814;
600.0000;0.9556;1.9716;
600.3000;0.9565;1.9644;
600.6000;0.9548;1.9474;
600.9000;0.9532;1.9231;
601.2000;0.9483;1.9037;
601.5000;0.9418;1.8867;
601.8000;0.9353;1.8745;
602.1000;0.9255;1.8502;
602.4000;0.9182;1.8260;
602.7000;0.9133;1.7992;
603.0000;0.9076;1.7798;
603.3000;0.9011;1.7604;
603.6000;0.8954;1.7434;
603.9000;0.8889;1.7313;
604.2000;0.8816;1.7191;
604.5000;0.8767;1.7070;
604.8000;0.8726;1.7070;
605.1000;0.8612;1.6924;
605.4000;0.8596;1.6948;
605.7000;0.8571;1.6851;
606.0000;0.8523;1.6657;
606.3000;0.8466;1.6511;
606.6000;0.8417;1.6536;
606.9000;0.8392;1.6608;
607.2000;0.8270;1.6244;
607.5000;0.8295;1.6317;
607.8000;0.8254;1.6244;
608.1000;0.8164;1.6123;
608.4000;0.8173;1.6196;
608.7000;0.8140;1.6074;
609.0000;0.8116;1.6123;
609.3000;0.8059;1.6074;
609.6000;0.8034;1.6001;
609.9000;0.7993;1.5953;
610.2000;0.7945;1.5904;
610.5000;0.7920;1.5831;
610.8000;0.7888;1.5831;
611.1000;0.7855;1.5807;
611.4000;0.7798;1.5686;
611.7000;0.7782;1.5661;
612.0000;0.7766;1.5637;
612.3000;0.7749;1.5516;
612.6000;0.7700;1.5443;
612.9000;0.7692;1.5492;
613.2000;0.7668;1.5540;
613.5000;0.7635;1.5516;
613.8000;0.7627;1.5467;
614.1000;0.7578;1.5394;
614.4000;0.7554;1.5370;
614.7000;0.7530;1.5346;
615.0000;0.7521;1.5443;
615.3000;0.7481;1.5273;
615.6000;0.7440;1.5200;
615.9000;0.7432;1.5273;
616.2000;0.7399;1.5200;
616.5000;0.7375;1.5297;
616.8000;0.7350;1.5273;
617.1000;0.7334;1.5273;
617.4000;0.7326;1.5346;
617.7000;0.7261;1.5249;
618.0000;0.7269;1.5176;
618.3000;0.7236;1.5054;
618.6000;0.7236;1.5006;
618.9000;0.7188;1.4957;
619.2000;0.7179;1.4982;
619.5000;0.7179;1.4982;
619.8000;0.7147;1.4884;
620.1000;0.7123;1.4787;
620.4000;0.7123;1.4909;
620.7000;0.7090;1.4884;
621.0000;0.7025;1.4690;
621.3000;0.7057;1.4714;
621.6000;0.7025;1.4714;
621.9000;0.7033;1.4739;
622.2000;0.7000;1.4812;
622.5000;0.6984;1.4812;
622.8000;0.6943;1.4836;
623.1000;0.6968;1.4884;
623.4000;0.6943;1.4909;
623.7000;0.6903;1.4860;
624.0000;0.6886;1.4909;
624.3000;0.6878;1.5030;
624.6000;0.6878;1.5054;
624.9000;0.6870;1.4982;
625.2000;0.6838;1.4884;
625.5000;0.6829;1.4812;
625.8000;0.6821;1.4787;
626.1000;0.6805;1.4739;
626.4000;0.6797;1.4787;
626.7000;0.6764;1.4714;
627.0000;0.6740;1.4666;
627.3000;0.6756;1.4666;
627.6000;0.6764;1.4666;
627.9000;0.6748;1.4690;
628.2000;0.6716;1.4690;
628.5000;0.6642;1.4593;
628.8000;0.6683;1.4763;
629.1000;0.6634;1.4617;
629.4000;0.6675;1.4642;
629.7000;0.6675;1.4690;
630.0000;0.6659;1.4763;
630.3000;0.6650;1.4739;
630.6000;0.6618;1.4690;
630.9000;0.6610;1.4763;
631.2000;0.6577;1.4714;
631.5000;0.6561;1.4690;
631.8000;0.6561;1.4714;
632.1000;0.6553;1.4739;
632.4000;0.6545;1.4714;
632.7000;0.6528;1.4787;
633.0000;0.6528;1.4812;
633.3000;0.6520;1.4836;
633.6000;0.6512;1.4836;
633.9000;0.6471;1.4642;
634.2000;0.6471;1.4714;
634.5000;0.6488;1.4642;
634.8000;0.6431;1.4520;
635.1000;0.6455;1.4593;
635.4000;0.6439;1.4472;
635.7000;0.6455;1.4593;
636.0000;0.6431;1.4545;
636.3000;0.6398;1.4496;
636.6000;0.6414;1.4593;
636.9000;0.6390;1.4593;
637.2000;0.6422;1.4666;
637.5000;0.6398;1.4569;
637.8000;0.6374;1.4617;
638.1000;0.6357;1.4617;
638.4000;0.6374;1.4520;
638.7000;0.6365;1.4520;
639.0000;0.6300;1.4399;
639.3000;0.6341;1.4520;
639.6000;0.6333;1.4520;
639.9000;0.6325;1.4472;
640.2000;0.6333;1.4520;
640.5000;0.6300;1.4520;
640.8000;0.6309;1.4569;
641.1000;0.6300;1.4496;
641.4000;0.6309;1.4447;
641.7000;0.6260;1.4326;
642.0000;0.6276;1.4302;
642.3000;0.6276;1.4326;
642.6000;0.6243;1.4326;
642.9000;0.6260;1.4326;
643.2000;0.6243;1.4253;
643.5000;0.6227;1.4205;
643.8000;0.6243;1.4326;
644.1000;0.6227;1.4350;
644.4000;0.6227;1.4399;
644.7000;0.6276;1.4617;
645.0000;0.6203;1.4472;
645.3000;0.6227;1.4496;
645.6000;0.6211;1.4447;
645.9000;0.6211;1.4472;
646.2000;0.6186;1.4545;
646.5000;0.6170;1.4569;
646.8000;0.6186;1.4520;
647.1000;0.6138;1.4399;
647.4000;0.6146;1.4399;
647.7000;0.6138;1.4447;
648.0000;0.6211;1.4690;
648.3000;0.6146;1.4496;
648.6000;0.6113;1.4496;
648.9000;0.6129;1.4545;
649.2000;0.6178;1.4690;
649.5000;0.6105;1.4569;
649.8000;0.6081;1.4423;
650.1000;0.6121;1.4593;
650.4000;0.6138;1.4642;
650.7000;0.6056;1.4399;
651.0000;0.6097;1.4423;
651.3000;0.6105;1.4447;
651.6000;0.6089;1.4375;
651.9000;0.6072;1.4423;
652.2000;0.6081;1.4423;
652.5000;0.6072;1.4399;
652.8000;0.6064;1.4423;
653.1000;0.6056;1.4399;
653.4000;0.6032;1.4375;
653.7000;0.6064;1.4399;
654.0000;0.6032;1.4350;
654.3000;0.6015;1.4326;
654.6000;0.6064;1.4496;
654.9000;0.6040;1.4496;
655.2000;0.5975;1.4302;
655.5000;0.6113;1.4642;
655.8000;0.6007;1.4447;
656.1000;0.6007;1.4496;
656.4000;0.6007;1.4617;
656.7000;0.6007;1.4569;
657.0000;0.6007;1.4666;
657.3000;0.6007;1.4569;
657.6000;0.5983;1.4545;
657.9000;0.5934;1.4447;
658.2000;0.5983;1.4739;
658.5000;0.5991;1.4739;
658.8000;0.5975;1.4617;
659.1000;0.5975;1.4569;
659.4000;0.6072;1.4763;
659.7000;0.5975;1.4569;
660.0000;0.5983;1.4520;
660.3000;0.5926;1.4447;
660.6000;0.5975;1.4593;
660.9000;0.5958;1.4569;
661.2000;0.5967;1.4520;
661.5000;0.5958;1.4496;
661.8000;0.5942;1.4569;
662.1000;0.5918;1.4472;
662.4000;0.5934;1.4472;
662.7000;0.5926;1.4520;
663.0000;0.5926;1.4569;
663.3000;0.5942;1.4642;
663.6000;0.5910;1.4666;
663.9000;0.5950;1.4714;
664.2000;0.5934;1.4714;
664.5000;0.5910;1.4690;
664.8000;0.5910;1.4666;
665.1000;0.5910;1.4666;
665.4000;0.5926;1.4714;
665.7000;0.5950;1.4884;
666.0000;0.5893;1.4763;
666.3000;0.5885;1.4714;
666.6000;0.5902;1.4690;
666.9000;0.5885;1.4642;
667.2000;0.5877;1.4617;
667.5000;0.5893;1.4714;
667.8000;0.5893;1.4787;
668.1000;0.5926;1.4957;
668.4000;0.5869;1.4812;
668.7000;0.5861;1.4739;
669.0000;0.5885;1.4690;
669.3000;0.5861;1.4666;
669.6000;0.5869;1.4739;
669.9000;0.5869;1.4787;
670.2000;0.5836;1.4690;
670.5000;0.5853;1.4763;
670.8000;0.5853;1.4714;
671.1000;0.5796;1.4642;
671.4000;0.5853;1.4714;
671.7000;0.5845;1.4617;
672.0000;0.5853;1.4545;
672.3000;0.5836;1.4593;
672.6000;0.5836;1.4617;
672.9000;0.5828;1.4642;
673.2000;0.5836;1.4666;
673.5000;0.5828;1.4642;
673.8000;0.5845;1.4714;
674.1000;0.5877;1.4860;
674.4000;0.5828;1.4690;
674.7000;0.5804;1.4690;
675.0000;0.5804;1.4642;
675.3000;0.5779;1.4569;
675.6000;0.5812;1.4569;
675.9000;0.5788;1.4496;
676.2000;0.5828;1.4593;
676.5000;0.5779;1.4545;
676.8000;0.5771;1.4472;
677.1000;0.5828;1.4617;
677.4000;0.5804;1.4666;
677.7000;0.5771;1.4545;
678.0000;0.5788;1.4593;
678.3000;0.5788;1.4569;
678.6000;0.5755;1.4545;
678.9000;0.5739;1.4496;
679.2000;0.5763;1.4666;
679.5000;0.5747;1.4642;
679.8000;0.5796;1.4739;
680.1000;0.5779;1.4617;
680.4000;0.5755;1.4545;
680.7000;0.5747;1.4520;
681.0000;0.5763;1.4569;
681.3000;0.5771;1.4617;
681.6000;0.5755;1.4569;
681.9000;0.5779;1.4642;
682.2000;0.5763;1.4739;
682.5000;0.5755;1.4763;
682.8000;0.5747;1.4787;
683.1000;0.5747;1.4812;
683.4000;0.5747;1.4787;
683.7000;0.5747;1.4787;
684.0000;0.5763;1.4812;
684.3000;0.5731;1.4787;
684.6000;0.5731;1.4836;
684.9000;0.5731;1.4763;
685.2000;0.5722;1.4690;
685.5000;0.5731;1.4714;
685.8000;0.5731;1.4763;
686.1000;0.5739;1.4812;
686.4000;0.5722;1.4714;
686.7000;0.5731;1.4690;
687.0000;0.5714;1.4714;
687.3000;0.5714;1.4812;
687.6000;0.5722;1.4739;
687.9000;0.5747;1.4787;
688.2000;0.5739;1.4763;
688.5000;0.5731;1.4739;
688.8000;0.5706;1.4763;
689.1000;0.5722;1.4812;
689.4000;0.5698;1.4763;
689.7000;0.5698;1.4714;
690.0000;0.5739;1.4642;
690.3000;0.5714;1.4520;
690.6000;0.5698;1.4472;
690.9000;0.5722;1.4496;
691.2000;0.5739;1.4593;
691.5000;0.5698;1.4496;
691.8000;0.5722;1.4520;
692.1000;0.5625;1.4277;
692.4000;0.5690;1.4472;
692.7000;0.5706;1.4545;
693.0000;0.5706;1.4569;
693.3000;0.5674;1.4520;
693.6000;0.5747;1.4714;
693.9000;0.5690;1.4617;
694.2000;0.5682;1.4593;
694.5000;0.5665;1.4617;
694.8000;0.5698;1.4690;
695.1000;0.5747;1.4812;
695.4000;0.5674;1.4593;
695.7000;0.5674;1.4569;
696.0000;0.5674;1.4520;
696.3000;0.5674;1.4545;
696.6000;0.5682;1.4569;
696.9000;0.5665;1.4569;
697.2000;0.5657;1.4593;
697.5000;0.5674;1.4617;
697.8000;0.5649;1.4520;
698.1000;0.5665;1.4569;
698.4000;0.5657;1.4569;
698.7000;0.5657;1.4375;
699.0000;0.5657;1.4399;
699.3000;0.5633;1.4375;
699.6000;0.5690;1.4569;
699.9000;0.5649;1.4593;
700.2000;0.5657;1.4593;
700.5000;0.5674;1.4569;
700.8000;0.5665;1.4666;
701.1000;0.5617;1.4690;
701.4000;0.5649;1.4714;
701.7000;0.5657;1.4714;
702.0000;0.5625;1.4617;
702.3000;0.5682;1.4593;
702.6000;0.5649;1.4447;
702.9000;0.5665;1.4399;
703.2000;0.5657;1.4423;
703.5000;0.5633;1.4399;
703.8000;0.5633;1.4326;
704.1000;0.5657;1.4423;
704.4000;0.5608;1.4302;
704.7000;0.5625;1.4399;
705.0000;0.5617;1.4496;
705.3000;0.5649;1.4545;
705.6000;0.5633;1.4496;
705.9000;0.5625;1.4423;
706.2000;0.5625;1.4423;
706.5000;0.5608;1.4399;
706.8000;0.5625;1.4472;
707.1000;0.5625;1.4545;
707.4000;0.5600;1.4472;
707.7000;0.5617;1.4569;
708.0000;0.5633;1.4617;
708.3000;0.5617;1.4520;
708.6000;0.5617;1.4399;
708.9000;0.5617;1.4423;
709.2000;0.5608;1.4375;
709.5000;0.5641;1.4545;
709.8000;0.5625;1.4520;
710.1000;0.5592;1.4423;
710.4000;0.5608;1.4447;
710.7000;0.5617;1.4399;
711.0000;0.5608;1.4375;
711.3000;0.5600;1.4472;
711.6000;0.5617;1.4496;
711.9000;0.5617;1.4520;
712.2000;0.5600;1.4520;
712.5000;0.5600;1.4423;
712.8000;0.5617;1.4496;
713.1000;0.5633;1.4642;
713.4000;0.5608;1.4593;
713.7000;0.5625;1.4714;
714.0000;0.5592;1.4690;
714.3000;0.5600;1.4690;
714.6000;0.5608;1.4666;
714.9000;0.5608;1.4714;
715.2000;0.5576;1.4617;
715.5000;0.5568;1.4545;
715.8000;0.5600;1.4617;
716.1000;0.5584;1.4593;
716.4000;0.5584;1.4569;
716.7000;0.5584;1.4545;
717.0000;0.5625;1.4714;
717.3000;0.5584;1.4617;
717.6000;0.5617;1.4714;
717.9000;0.5600;1.4690;
718.2000;0.5560;1.4617;
718.5000;0.5584;1.4545;
718.8000;0.5592;1.4472;
719.1000;0.5584;1.4447;
719.4000;0.5600;1.4520;
719.7000;0.5600;1.4545;
720.0000;0.5592;1.4520;
720.3000;0.5576;1.4593;
720.6000;0.5560;1.4642;
720.9000;0.5584;1.4666;
721.2000;0.5608;1.4739;
721.5000;0.5584;1.4666;
721.8000;0.5584;1.4739;
722.1000;0.5560;1.4714;
722.4000;0.5568;1.4714;
722.7000;0.5584;1.4666;
723.0000;0.5568;1.4545;
723.3000;0.5551;1.4545;
723.6000;0.5568;1.4545;
723.9000;0.5560;1.4423;
724.2000;0.5551;1.4375;
724.5000;0.5535;1.4326;
724.8000;0.5560;1.4447;
725.1000;0.5560;1.4545;
725.4000;0.5543;1.4496;
725.7000;0.5535;1.4496;
726.0000;0.5568;1.4617;
726.3000;0.5511;1.4569;
726.6000;0.5576;1.4739;
726.9000;0.5560;1.4787;
727.2000;0.5551;1.4666;
727.5000;0.5551;1.4666;
727.8000;0.5543;1.4690;
728.1000;0.5543;1.4714;
728.4000;0.5511;1.4593;
728.7000;0.5543;1.4666;
729.0000;0.5527;1.4593;
729.3000;0.5560;1.4666;
729.6000;0.5560;1.4617;
729.9000;0.5527;1.4617;
730.2000;0.5519;1.4520;
730.5000;0.5584;1.4666;
730.8000;0.5551;1.4642;
731.1000;0.5560;1.4617;
731.4000;0.5486;1.4423;
731.7000;0.5535;1.4593;
732.0000;0.5560;1.4545;
732.3000;0.5519;1.4545;
732.6000;0.5543;1.4617;
732.9000;0.5503;1.4520;
733.2000;0.5568;1.4714;
733.5000;0.5551;1.4642;
733.8000;0.5543;1.4593;
734.1000;0.5543;1.4642;
734.4000;0.5470;1.4472;
734.7000;0.5543;1.4617;
735.0000;0.5543;1.4617;
735.3000;0.5551;1.4496;
735.6000;0.5535;1.4447;
735.9000;0.5527;1.4520;
736.2000;0.5527;1.4496;
736.5000;0.5511;1.4472;
736.8000;0.5478;1.4496;
737.1000;0.5535;1.4617;
737.4000;0.5535;1.4617;
737.7000;0.5543;1.4666;
738.0000;0.5527;1.4617;
738.3000;0.5527;1.4666;
738.6000;0.5527;1.4642;
738.9000;0.5543;1.4642;
739.2000;0.5535;1.4666;
739.5000;0.5503;1.4666;
739.8000;0.5617;1.4933;
740.1000;0.5535;1.4739;
740.4000;0.5543;1.4714;
740.7000;0.5519;1.4714;
741.0000;0.5462;1.4593;
741.3000;0.5527;1.4739;
741.6000;0.5519;1.4690;
741.9000;0.5519;1.4690;
742.2000;0.5495;1.4472;
742.5000;0.5519;1.4642;
742.8000;0.5519;1.4666;
743.1000;0.5527;1.4593;
743.4000;0.5527;1.4593;
743.7000;0.5519;1.4617;
744.0000;0.5519;1.4617;
744.3000;0.5527;1.4642;
744.6000;0.5519;1.4666;
744.9000;0.5519;1.4739;
745.2000;0.5519;1.4593;
745.5000;0.5519;1.4569;
745.8000;0.5495;1.4520;
746.1000;0.5511;1.4545;
746.4000;0.5527;1.4666;
746.7000;0.5527;1.4739;
747.0000;0.5576;1.4860;
747.3000;0.5511;1.4812;
747.6000;0.5503;1.4763;
747.9000;0.5495;1.4787;
748.2000;0.5511;1.4836;
748.5000;0.5503;1.4836;
748.8000;0.5495;1.4787;
749.1000;0.5495;1.4812;
749.4000;0.5519;1.4812;
749.7000;0.5495;1.4836;
750.0000;0.5503;1.4836;
750.3000;0.5519;1.4933;
750.6000;0.5503;1.4933;
750.9000;0.5511;1.4933;
751.2000;0.5495;1.4836;
751.5000;0.5495;1.4787;
751.8000;0.5486;1.4836;
752.1000;0.5486;1.4812;
752.4000;0.5495;1.4812;
752.7000;0.5503;1.4812;
753.0000;0.5511;1.4860;
753.3000;0.5495;1.4787;
753.6000;0.5495;1.4739;
753.9000;0.5511;1.4714;
754.2000;0.5495;1.4642;
754.5000;0.5486;1.4593;
754.8000;0.5503;1.4496;
755.1000;0.5495;1.4496;
755.4000;0.5511;1.4545;
755.7000;0.5560;1.4666;
756.0000;0.5495;1.4569;
756.3000;0.5462;1.4423;
756.6000;0.5503;1.4472;
756.9000;0.5511;1.4496;
757.2000;0.5478;1.4496;
757.5000;0.5495;1.4593;
757.8000;0.5527;1.4714;
758.1000;0.5495;1.4617;
758.4000;0.5495;1.4642;
758.7000;0.5495;1.4617;
759.0000;0.5478;1.4642;
759.3000;0.5495;1.4763;
759.6000;0.5495;1.4642;
759.9000;0.5486;1.4593;
760.2000;0.5486;1.4617;
760.5000;0.5495;1.4666;
760.8000;0.5503;1.4739;
761.1000;0.5519;1.4763;
761.4000;0.5511;1.4739;
761.7000;0.5478;1.4739;
762.0000;0.5478;1.4617;
762.3000;0.5478;1.4666;
762.6000;0.5503;1.4739;
762.9000;0.5429;1.4617;
763.2000;0.5560;1.4909;
763.5000;0.5495;1.4739;
763.8000;0.5421;1.4617;
764.1000;0.5478;1.4666;
764.4000;0.5495;1.4714;
764.7000;0.5543;1.4884;
765.0000;0.5486;1.4787;
765.3000;0.5495;1.4787;
765.6000;0.5551;1.5030;
765.9000;0.5495;1.4982;
766.2000;0.5478;1.4957;
766.5000;0.5478;1.4933;
766.8000;0.5462;1.4812;
767.1000;0.5470;1.4860;
767.4000;0.5486;1.4787;
767.7000;0.5495;1.4860;
768.0000;0.5495;1.4933;
768.3000;0.5470;1.4933;
768.6000;0.5462;1.4884;
768.9000;0.5470;1.4860;
769.2000;0.5470;1.4884;
769.5000;0.5470;1.4860;
769.8000;0.5486;1.4739;
770.1000;0.5486;1.4714;
770.4000;0.5486;1.4739;
770.7000;0.5478;1.4812;
771.0000;0.5511;1.4909;
771.3000;0.5421;1.4787;
771.6000;0.5478;1.4860;
771.9000;0.5462;1.4763;
772.2000;0.5478;1.4836;
772.5000;0.5462;1.4812;
772.8000;0.5438;1.4812;
773.1000;0.5478;1.4909;
773.4000;0.5462;1.4957;
773.7000;0.5486;1.4982;
774.0000;0.5454;1.4982;
774.3000;0.5438;1.4812;
774.6000;0.5446;1.4836;
774.9000;0.5470;1.4836;
775.2000;0.5470;1.4812;
775.5000;0.5535;1.4982;
775.8000;0.5470;1.4836;
776.1000;0.5486;1.4909;
776.4000;0.5568;1.4982;
776.7000;0.5454;1.4714;
777.0000;0.5478;1.4836;
777.3000;0.5470;1.4836;
777.6000;0.5503;1.4884;
777.9000;0.5454;1.4860;
778.2000;0.5454;1.4812;
778.5000;0.5446;1.4884;
778.8000;0.5462;1.4884;
779.1000;0.5462;1.4787;
779.4000;0.5421;1.4714;
779.7000;0.5462;1.4836;
780.0000;0.5470;1.4860;
780.3000;0.5446;1.4836;
780.6000;0.5462;1.4860;
780.9000;0.5470;1.5006;
781.2000;0.5470;1.4957;
781.5000;0.5446;1.4982;
781.8000;0.5478;1.5079;
782.1000;0.5478;1.5152;
782.4000;0.5462;1.5152;
782.7000;0.5438;1.5054;
783.0000;0.5470;1.5079;
783.3000;0.5454;1.5030;
783.6000;0.5462;1.5103;
783.9000;0.5470;1.5030;
784.2000;0.5446;1.4909;
784.5000;0.5446;1.4812;
784.8000;0.5462;1.4909;
785.1000;0.5454;1.4884;
785.4000;0.5519;1.5079;
785.7000;0.5446;1.4884;
786.0000;0.5454;1.4933;
786.3000;0.5462;1.4982;
786.6000;0.5478;1.5006;
786.9000;0.5462;1.4909;
787.2000;0.5421;1.4642;
787.5000;0.5486;1.4763;
787.8000;0.5495;1.4763;
788.1000;0.5462;1.4690;
788.4000;0.5438;1.4690;
788.7000;0.5438;1.4690;
789.0000;0.5454;1.4642;
789.3000;0.5438;1.4666;
789.6000;0.5470;1.4739;
789.9000;0.5446;1.4642;
790.2000;0.5413;1.4545;
790.5000;0.5446;1.4690;
790.8000;0.5438;1.4617;
791.1000;0.5454;1.4666;
791.4000;0.5486;1.4787;
791.7000;0.5438;1.4690;
792.0000;0.5438;1.4763;
792.3000;0.5438;1.4714;
792.6000;0.5495;1.4836;
792.9000;0.5462;1.4787;
793.2000;0.5560;1.5079;
793.5000;0.5454;1.4812;
793.8000;0.5438;1.4884;
794.1000;0.5470;1.4884;
794.4000;0.5389;1.4642;
794.7000;0.5495;1.4933;
795.0000;0.5438;1.4884;
795.3000;0.5438;1.4860;
795.6000;0.5454;1.4836;
795.9000;0.5438;1.4739;
796.2000;0.5438;1.4763;
796.5000;0.5397;1.4569;
796.8000;0.5454;1.4787;
797.1000;0.5486;1.4836;
797.4000;0.5446;1.4690;
797.7000;0.5462;1.4763;
798.0000;0.5438;1.4739;
798.3000;0.5405;1.4666;
798.6000;0.5438;1.4739;
798.9000;0.5381;1.4593;
799.2000;0.5462;1.4763;
799.5000;0.5421;1.4714;
799.8000;0.5429;1.4812;
800.1000;0.5446;1.4860;
800.4000;0.5454;1.4860;
800.7000;0.5438;1.4787;
801.0000;0.5429;1.4812;
801.3000;0.5438;1.4787;
801.6000;0.5446;1.4763;
801.9000;0.5470;1.4860;
802.2000;0.5511;1.4957;
802.5000;0.5429;1.4714;
802.8000;0.5446;1.4812;
803.1000;0.5438;1.4909;
803.4000;0.5372;1.4690;
803.7000;0.5429;1.4787;
804.0000;0.5446;1.4836;
804.3000;0.5446;1.4787;
804.6000;0.5446;1.4787;
804.9000;0.5421;1.4739;
805.2000;0.5446;1.4836;
805.5000;0.5405;1.4763;
805.8000;0.5454;1.4836;
806.1000;0.5438;1.4763;
806.4000;0.5438;1.4812;
806.7000;0.5438;1.4787;
807.0000;0.5438;1.4787;
807.3000;0.5438;1.4836;
807.6000;0.5421;1.4739;
807.9000;0.5397;1.4642;
808.2000;0.5511;1.4933;
808.5000;0.5413;1.4690;
808.8000;0.5429;1.4763;
809.1000;0.5429;1.4812;
809.4000;0.5438;1.4763;
809.7000;0.5454;1.4787;
810.0000;0.5446;1.4690;
810.3000;0.5429;1.4714;
810.6000;0.5372;1.4545;
810.9000;0.5413;1.4690;
811.2000;0.5356;1.4545;
811.5000;0.5429;1.4763;
811.8000;0.5438;1.4763;
812.1000;0.5446;1.4812;
812.4000;0.5429;1.4860;
812.7000;0.5332;1.4617;
813.0000;0.5421;1.4909;
813.3000;0.5429;1.4909;
813.6000;0.5421;1.4787;
813.9000;0.5429;1.4836;
814.2000;0.5478;1.5006;
814.5000;0.5421;1.4933;
814.8000;0.5413;1.4933;
815.1000;0.5413;1.4909;
815.4000;0.5438;1.4957;
815.7000;0.5413;1.4860;
816.0000;0.5429;1.4860;
816.3000;0.5429;1.4933;
816.6000;0.5356;1.4763;
816.9000;0.5429;1.5006;
817.2000;0.5438;1.4957;
817.5000;0.5421;1.4909;
817.8000;0.5429;1.4884;
818.1000;0.5438;1.4957;
818.4000;0.5446;1.4957;
818.7000;0.5446;1.4933;
819.0000;0.5421;1.4909;
819.3000;0.5438;1.4860;
819.6000;0.5438;1.4884;
819.9000;0.5421;1.4787;
820.2000;0.5413;1.4763;
820.5000;0.5405;1.4787;
820.8000;0.5413;1.4812;
821.1000;0.5413;1.4763;
821.4000;0.5340;1.4593;
821.7000;0.5397;1.4714;
822.0000;0.5421;1.4666;
822.3000;0.5421;1.4714;
822.6000;0.5421;1.4714;
822.9000;0.5421;1.4714;
823.2000;0.5429;1.4666;
823.5000;0.5421;1.4642;
823.8000;0.5454;1.4690;
824.1000;0.5429;1.4666;
824.4000;0.5421;1.4642;
824.7000;0.5429;1.4617;
825.0000;0.5421;1.4617;
825.3000;0.5413;1.4593;
825.6000;0.5405;1.4569;
825.9000;0.5421;1.4593;
826.2000;0.5438;1.4642;
826.5000;0.5413;1.4666;
826.8000;0.5421;1.4690;
827.1000;0.5429;1.4787;
827.4000;0.5372;1.4763;
827.7000;0.5413;1.4812;
828.0000;0.5446;1.4884;
828.3000;0.5405;1.4787;
828.6000;0.5405;1.4812;
828.9000;0.5429;1.4763;
829.2000;0.5429;1.4787;
829.5000;0.5405;1.4836;
829.8000;0.5421;1.4860;
830.1000;0.5413;1.4836;
830.4000;0.5413;1.4884;
830.7000;0.5429;1.4836;
831.0000;0.5421;1.4909;
831.3000;0.5413;1.4909;
831.6000;0.5429;1.4933;
831.9000;0.5372;1.4787;
832.2000;0.5429;1.4836;
832.5000;0.5438;1.4836;
832.8000;0.5405;1.4690;
833.1000;0.5478;1.4860;
833.4000;0.5438;1.4812;
833.7000;0.5438;1.4787;
834.0000;0.5421;1.4763;
834.3000;0.5405;1.4690;
834.6000;0.5413;1.4690;
834.9000;0.5429;1.4884;
835.2000;0.5397;1.4787;
835.5000;0.5405;1.4812;
835.8000;0.5454;1.4933;
836.1000;0.5421;1.4884;
836.4000;0.5413;1.4884;
836.7000;0.5397;1.4860;
837.0000;0.5397;1.4812;
837.3000;0.5413;1.4812;
837.6000;0.5429;1.4836;
837.9000;0.5413;1.4787;
838.2000;0.5421;1.4763;
838.5000;0.5389;1.4739;
838.8000;0.5381;1.4739;
839.1000;0.5421;1.4763;
839.4000;0.5429;1.4763;
839.7000;0.5421;1.4836;
840.0000;0.5413;1.4884;
840.3000;0.5446;1.4909;
840.6000;0.5413;1.4836;
840.9000;0.5421;1.4836;
841.2000;0.5446;1.4884;
841.5000;0.5438;1.4739;
841.8000;0.5421;1.4739;
842.1000;0.5413;1.4642;
842.4000;0.5413;1.4593;
842.7000;0.5405;1.4642;
843.0000;0.5421;1.4617;
843.3000;0.5397;1.4496;
843.6000;0.5405;1.4545;
843.9000;0.5413;1.4593;
844.2000;0.5397;1.4642;
844.5000;0.5372;1.4666;
844.8000;0.5413;1.4739;
845.1000;0.5405;1.4714;
845.4000;0.5429;1.4812;
845.7000;0.5389;1.4787;
846.0000;0.5381;1.4617;
846.3000;0.5405;1.4617;
846.6000;0.5429;1.4763;
846.9000;0.5397;1.4642;
847.2000;0.5397;1.4642;
847.5000;0.5381;1.4666;
847.8000;0.5405;1.4617;
848.1000;0.5413;1.4666;
848.4000;0.5438;1.4763;
848.7000;0.5413;1.4714;
849.0000;0.5413;1.4714;
849.3000;0.5381;1.4666;
849.6000;0.5413;1.4763;
849.9000;0.5429;1.4909;
850.2000;0.5405;1.4836;
850.5000;0.5421;1.4884;
850.8000;0.5405;1.4860;
851.1000;0.5429;1.4909;
851.4000;0.5454;1.5030;
851.7000;0.5413;1.4909;
852.0000;0.5405;1.4909;
852.3000;0.5405;1.4884;
852.6000;0.5413;1.4909;
852.9000;0.5405;1.4933;
853.2000;0.5389;1.4909;
853.5000;0.5397;1.4909;
853.8000;0.5397;1.4836;
854.1000;0.5413;1.4812;
854.4000;0.5429;1.4812;
854.7000;0.5421;1.4812;
855.0000;0.5405;1.4860;
855.3000;0.5413;1.4884;
855.6000;0.5413;1.4957;
855.9000;0.5405;1.4909;
856.2000;0.5356;1.4690;
856.5000;0.5413;1.4739;
856.8000;0.5413;1.4714;
857.1000;0.5429;1.4739;
857.4000;0.5397;1.4642;
857.7000;0.5364;1.4642;
858.0000;0.5405;1.4763;
858.3000;0.5397;1.4763;
858.6000;0.5405;1.4714;
858.9000;0.5413;1.4787;
859.2000;0.5405;1.4860;
859.5000;0.5421;1.4909;
859.8000;0.5405;1.4933;
860.1000;0.5381;1.4909;
860.4000;0.5413;1.4957;
860.7000;0.5389;1.4909;
861.0000;0.5405;1.4909;
861.3000;0.5421;1.4909;
861.6000;0.5405;1.4860;
861.9000;0.5462;1.5030;
862.2000;0.5389;1.5006;
862.5000;0.5381;1.4957;
862.8000;0.5389;1.4957;
863.1000;0.5405;1.4957;
863.4000;0.5429;1.5030;
863.7000;0.5397;1.4957;
864.0000;0.5405;1.4933;
864.3000;0.5413;1.5006;
864.6000;0.5397;1.4982;
864.9000;0.5372;1.4933;
865.2000;0.5421;1.4933;
865.5000;0.5413;1.4909;
865.8000;0.5429;1.4982;
866.1000;0.5364;1.4812;
866.4000;0.5446;1.4957;
866.7000;0.5397;1.4787;
867.0000;0.5405;1.4787;
867.3000;0.5413;1.4860;
867.6000;0.5364;1.4812;
867.9000;0.5405;1.4909;
868.2000;0.5413;1.4909;
868.5000;0.5429;1.4957;
868.8000;0.5389;1.4909;
869.1000;0.5405;1.4836;
869.4000;0.5389;1.4812;
869.7000;0.5413;1.4909;
870.0000;0.5397;1.4836;
870.3000;0.5405;1.4860;
870.6000;0.5397;1.4884;
870.9000;0.5405;1.4884;
871.2000;0.5446;1.5006;
871.5000;0.5405;1.4884;
871.8000;0.5389;1.4836;
872.1000;0.5397;1.4812;
872.4000;0.5413;1.4884;
872.7000;0.5405;1.4812;
873.0000;0.5397;1.4787;
873.3000;0.5340;1.4690;
873.6000;0.5389;1.4884;
873.9000;0.5372;1.4836;
874.2000;0.5389;1.4957;
874.5000;0.5397;1.4982;
874.8000;0.5470;1.5127;
875.1000;0.5405;1.4957;
875.4000;0.5389;1.4909;
875.7000;0.5397;1.4933;
876.0000;0.5389;1.4933;
876.3000;0.5405;1.4933;
876.6000;0.5397;1.4860;
876.9000;0.5413;1.4909;
877.2000;0.5421;1.4933;
877.5000;0.5381;1.4812;
877.8000;0.5389;1.4763;
878.1000;0.5405;1.4836;
878.4000;0.5389;1.4763;
878.7000;0.5356;1.4714;
879.0000;0.5381;1.4787;
879.3000;0.5397;1.4933;
879.6000;0.5381;1.4933;
879.9000;0.5413;1.5079;
880.2000;0.5397;1.5006;
880.5000;0.5389;1.5054;
880.8000;0.5381;1.5079;
881.1000;0.5372;1.5127;
881.4000;0.5389;1.5127;
881.7000;0.5389;1.5030;
882.0000;0.5381;1.4982;
882.3000;0.5413;1.5103;
882.6000;0.5405;1.5030;
882.9000;0.5389;1.5006;
883.2000;0.5381;1.5054;
883.5000;0.5372;1.4982;
883.8000;0.5381;1.5054;
884.1000;0.5389;1.5054;
884.4000;0.5381;1.5006;
884.7000;0.5397;1.5030;
885.0000;0.5413;1.5006;
885.3000;0.5405;1.5006;
885.6000;0.5413;1.4982;
885.9000;0.5397;1.4982;
886.2000;0.5381;1.4957;
886.5000;0.5413;1.5030;
886.8000;0.5413;1.5006;
887.1000;0.5389;1.4957;
887.4000;0.5389;1.5054;
887.7000;0.5389;1.5054;
888.0000;0.5405;1.5152;
888.3000;0.5421;1.5176;
888.6000;0.5381;1.5030;
888.9000;0.5356;1.4982;
889.2000;0.5364;1.4933;
889.5000;0.5389;1.5006;
889.8000;0.5405;1.5127;
890.1000;0.5372;1.5006;
890.4000;0.5397;1.5030;
890.7000;0.5389;1.5054;
891.0000;0.5438;1.5103;
891.3000;0.5389;1.5006;
891.6000;0.5389;1.5079;
891.9000;0.5397;1.5103;
892.2000;0.5381;1.5103;
892.5000;0.5364;1.5054;
892.8000;0.5397;1.5249;
893.1000;0.5381;1.5079;
893.4000;0.5372;1.5152;
893.7000;0.5381;1.5176;
894.0000;0.5381;1.5176;
894.3000;0.5389;1.5176;
894.6000;0.5372;1.5079;
894.9000;0.5389;1.5103;
895.2000;0.5397;1.5127;
895.5000;0.5381;1.5176;
895.8000;0.5389;1.5200;
896.1000;0.5389;1.5127;
896.4000;0.5397;1.5127;
896.7000;0.5381;1.5079;
897.0000;0.5381;1.4933;
897.3000;0.5381;1.4909;
897.6000;0.5381;1.4909;
897.9000;0.5397;1.5079;
898.2000;0.5397;1.5103;
898.5000;0.5405;1.5103;
898.8000;0.5397;1.5127;
899.1000;0.5389;1.5103;
899.4000;0.5405;1.5127;
899.7000;0.5389;1.5054;
900.0000;0.5381;1.5054;
900.3000;0.5397;1.5054;
900.6000;0.5389;1.5079;
900.9000;0.5397;1.5079;
901.2000;0.5348;1.4933;
901.5000;0.5446;1.5152;
901.8000;0.5405;1.5152;
902.1000;0.5389;1.5079;
902.4000;0.5397;1.5152;
902.7000;0.5405;1.5176;
903.0000;0.5478;1.5419;
903.3000;0.5405;1.5224;
903.6000;0.5381;1.5273;
903.9000;0.5332;1.5200;
904.2000;0.5397;1.5224;
904.5000;0.5372;1.5103;
904.8000;0.5364;1.5030;
905.1000;0.5364;1.5030;
905.4000;0.5397;1.4957;
905.7000;0.5397;1.5054;
906.0000;0.5421;1.5176;
906.3000;0.5372;1.5079;
906.6000;0.5381;1.5079;
906.9000;0.5397;1.5103;
907.2000;0.5381;1.5030;
907.5000;0.5397;1.5030;
907.8000;0.5397;1.4909;
908.1000;0.5389;1.4982;
908.4000;0.5389;1.4982;
908.7000;0.5356;1.4909;
909.0000;0.5372;1.4982;
909.3000;0.5381;1.5079;
909.6000;0.5405;1.5103;
909.9000;0.5381;1.5079;
910.2000;0.5372;1.5079;
910.5000;0.5389;1.5127;
910.8000;0.5381;1.5152;
911.1000;0.5381;1.5200;
911.4000;0.5348;1.5152;
911.7000;0.5389;1.5152;
912.0000;0.5405;1.5054;
912.3000;0.5397;1.5079;
912.6000;0.5389;1.5079;
912.9000;0.5397;1.5079;
913.2000;0.5381;1.5079;
913.5000;0.5397;1.5127;
913.8000;0.5389;1.5054;
914.1000;0.5372;1.5030;
914.4000;0.5356;1.4909;
914.7000;0.5405;1.5006;
915.0000;0.5397;1.4933;
915.3000;0.5307;1.4812;
915.6000;0.5372;1.5030;
915.9000;0.5372;1.4957;
916.2000;0.5389;1.4957;
916.5000;0.5364;1.4909;
916.8000;0.5381;1.5103;
917.1000;0.5381;1.5079;
917.4000;0.5348;1.4982;
917.7000;0.5381;1.5103;
918.0000;0.5364;1.5030;
918.3000;0.5381;1.5079;
918.6000;0.5397;1.5103;
918.9000;0.5397;1.5079;
919.2000;0.5413;1.5176;
919.5000;0.5389;1.5152;
919.8000;0.5372;1.5127;
920.1000;0.5381;1.5006;
920.4000;0.5364;1.4884;
920.7000;0.5372;1.4957;
921.0000;0.5381;1.5054;
921.3000;0.5364;1.5006;
921.6000;0.5389;1.5006;
921.9000;0.5372;1.5054;
922.2000;0.5332;1.4933;
922.5000;0.5364;1.4982;
922.8000;0.5389;1.5030;
923.1000;0.5372;1.5030;
923.4000;0.5405;1.5176;
923.7000;0.5381;1.5103;
924.0000;0.5454;1.5152;
924.3000;0.5364;1.5006;
924.6000;0.5372;1.4957;
924.9000;0.5381;1.5030;
925.2000;0.5372;1.4933;
925.5000;0.5340;1.4836;
925.8000;0.5372;1.4909;
926.1000;0.5364;1.4909;
926.4000;0.5413;1.5030;
926.7000;0.5372;1.4982;
927.0000;0.5356;1.5006;
927.3000;0.5364;1.5006;
927.6000;0.5356;1.5079;
927.9000;0.5364;1.5079;
928.2000;0.5381;1.5030;
928.5000;0.5389;1.4982;
928.8000;0.5381;1.4933;
929.1000;0.5389;1.4787;
929.4000;0.5372;1.4714;
929.7000;0.5389;1.4739;
930.0000;0.5348;1.4690;
930.3000;0.5364;1.4714;
930.6000;0.5381;1.4763;
930.9000;0.5364;1.4739;
931.2000;0.5372;1.4690;
931.5000;0.5381;1.4642;
931.8000;0.5364;1.4666;
932.1000;0.5389;1.4714;
932.4000;0.5389;1.4836;
932.7000;0.5381;1.4860;
933.0000;0.5389;1.4787;
933.3000;0.5381;1.4860;
933.6000;0.5405;1.4957;
933.9000;0.5389;1.4860;
934.2000;0.5372;1.4812;
934.5000;0.5405;1.4812;
934.8000;0.5397;1.4714;
935.1000;0.5372;1.4787;
935.4000;0.5364;1.4884;
935.7000;0.5381;1.4933;
936.0000;0.5381;1.4933;
936.3000;0.5332;1.4714;
936.6000;0.5381;1.4860;
936.9000;0.5389;1.4739;
937.2000;0.5389;1.4642;
937.5000;0.5397;1.4642;
937.8000;0.5381;1.4666;
938.1000;0.5372;1.4714;
938.4000;0.5381;1.4787;
938.7000;0.5356;1.4690;
939.0000;0.5372;1.4812;
939.3000;0.5372;1.4836;
939.6000;0.5372;1.4836;
939.9000;0.5372;1.4860;
940.2000;0.5364;1.4787;
940.5000;0.5364;1.4739;
940.8000;0.5340;1.4666;
941.1000;0.5364;1.4666;
941.4000;0.5421;1.4763;
941.7000;0.5389;1.4763;
942.0000;0.5389;1.4836;
942.3000;0.5389;1.4739;
942.6000;0.5372;1.4763;
942.9000;0.5372;1.4860;
943.2000;0.5421;1.4982;
943.5000;0.5364;1.4836;
943.8000;0.5315;1.4812;
944.1000;0.5356;1.4933;
944.4000;0.5291;1.4739;
944.7000;0.5389;1.4909;
945.0000;0.5356;1.4909;
945.3000;0.5397;1.4933;
945.6000;0.5372;1.4933;
945.9000;0.5364;1.4884;
946.2000;0.5381;1.4884;
946.5000;0.5389;1.4982;
946.8000;0.5372;1.5030;
947.1000;0.5397;1.5054;
947.4000;0.5397;1.5030;
947.7000;0.5389;1.5054;
948.0000;0.5381;1.5054;
948.3000;0.5372;1.5103;
948.6000;0.5364;1.5006;
948.9000;0.5381;1.5079;
949.2000;0.5364;1.5030;
949.5000;0.5372;1.5079;
949.8000;0.5381;1.5103;
950.1000;0.5381;1.5030;
950.4000;0.5389;1.5006;
950.7000;0.5364;1.4982;
951.0000;0.5356;1.4933;
951.3000;0.5356;1.4860;
951.6000;0.5348;1.4884;
951.9000;0.5364;1.4933;
952.2000;0.5364;1.4884;
952.5000;0.5356;1.4787;
952.8000;0.5405;1.4933;
953.1000;0.5405;1.4933;
953.4000;0.5372;1.4812;
953.7000;0.5364;1.4860;
954.0000;0.5381;1.4957;
954.3000;0.5381;1.4957;
954.6000;0.5372;1.4884;
954.9000;0.5372;1.4957;
955.2000;0.5372;1.4909;
955.5000;0.5372;1.4933;
955.8000;0.5389;1.4909;
956.1000;0.5372;1.4860;
956.4000;0.5364;1.4860;
956.7000;0.5372;1.4909;
957.0000;0.5389;1.4909;
957.3000;0.5381;1.4933;
957.6000;0.5372;1.4884;
957.9000;0.5364;1.4884;
958.2000;0.5364;1.4860;
958.5000;0.5381;1.4909;
958.8000;0.5372;1.4909;
959.1000;0.5405;1.4909;
959.4000;0.5389;1.4860;
959.7000;0.5389;1.5006;
960.0000;0.5381;1.5054;
960.3000;0.5267;1.4763;
960.6000;0.5372;1.5006;
960.9000;0.5356;1.4933;
961.2000;0.5364;1.4982;
961.5000;0.5356;1.4909;
961.8000;0.5356;1.4909;
962.1000;0.5307;1.4787;
962.4000;0.5364;1.4860;
962.7000;0.5364;1.4909;
963.0000;0.5348;1.4787;
963.3000;0.5364;1.4787;
963.6000;0.5364;1.4836;
963.9000;0.5364;1.4836;
964.2000;0.5364;1.4909;
964.5000;0.5348;1.4812;
964.8000;0.5356;1.4836;
965.1000;0.5381;1.4933;
965.4000;0.5389;1.4860;
965.7000;0.5372;1.4909;
966.0000;0.5364;1.4763;
966.3000;0.5381;1.4739;
966.6000;0.5364;1.4739;
966.9000;0.5275;1.4496;
967.2000;0.5356;1.4666;
967.5000;0.5364;1.4642;
967.8000;0.5348;1.4642;
968.1000;0.5389;1.4739;
968.4000;0.5364;1.4714;
968.7000;0.5372;1.4690;
969.0000;0.5364;1.4739;
969.3000;0.5381;1.4884;
969.6000;0.5372;1.4933;
969.9000;0.5299;1.4666;
970.2000;0.5397;1.4884;
970.5000;0.5364;1.4933;
970.8000;0.5381;1.5006;
971.1000;0.5397;1.5079;
971.4000;0.5299;1.4836;
971.7000;0.5356;1.4957;
972.0000;0.5364;1.5006;
972.3000;0.5381;1.4957;
972.6000;0.5389;1.4909;
972.9000;0.5364;1.4860;
973.2000;0.5324;1.4690;
973.5000;0.5381;1.4763;
973.8000;0.5348;1.4739;
974.1000;0.5364;1.4787;
974.4000;0.5372;1.4787;
974.7000;0.5397;1.4836;
975.0000;0.5381;1.4836;
975.3000;0.5356;1.4714;
975.6000;0.5356;1.4690;
975.9000;0.5381;1.4884;
976.2000;0.5364;1.4933;
976.5000;0.5381;1.4909;
976.8000;0.5364;1.4909;
977.1000;0.5364;1.4933;
977.4000;0.5364;1.4884;
977.7000;0.5372;1.4884;
978.0000;0.5405;1.5030;
978.3000;0.5348;1.4860;
978.6000;0.5364;1.4836;
978.9000;0.5364;1.4812;
979.2000;0.5332;1.4666;
979.5000;0.5356;1.4690;
979.8000;0.5364;1.4642;
980.1000;0.5372;1.4617;
980.4000;0.5372;1.4569;
980.7000;0.5389;1.4763;
981.0000;0.5364;1.4787;
981.3000;0.5381;1.4812;
981.6000;0.5381;1.4739;
981.9000;0.5372;1.4787;
982.2000;0.5372;1.4739;
982.5000;0.5381;1.4812;
982.8000;0.5381;1.4860;
983.1000;0.5372;1.4812;
983.4000;0.5356;1.4812;
983.7000;0.5389;1.4909;
984.0000;0.5364;1.4884;
984.3000;0.5364;1.4860;
984.6000;0.5389;1.4957;
984.9000;0.5372;1.4933;
985.2000;0.5381;1.4933;
985.5000;0.5356;1.4909;
985.8000;0.5356;1.4933;
986.1000;0.5381;1.5103;
986.4000;0.5364;1.5054;
986.7000;0.5397;1.5006;
987.0000;0.5364;1.4933;
987.3000;0.5348;1.4909;
987.6000;0.5364;1.4982;
987.9000;0.5364;1.4982;
988.2000;0.5356;1.5006;
988.5000;0.5348;1.4982;
988.8000;0.5405;1.4982;
989.1000;0.5372;1.4860;
989.4000;0.5405;1.5006;
989.7000;0.5356;1.4909;
990.0000;0.5381;1.4884;
990.3000;0.5372;1.4933;
990.6000;0.5405;1.4933;
990.9000;0.5364;1.4860;
991.2000;0.5372;1.4884;
991.5000;0.5364;1.4884;
991.8000;0.5381;1.5006;
992.1000;0.5275;1.4714;
992.4000;0.5372;1.4982;
992.7000;0.5372;1.5030;
993.0000;0.5389;1.5054;
993.3000;0.5364;1.5030;
993.6000;0.5381;1.5006;
993.9000;0.5348;1.4909;
994.2000;0.5364;1.4933;
994.5000;0.5364;1.4933;
994.8000;0.5372;1.4982;
995.1000;0.5348;1.4884;
995.4000;0.5356;1.4909;
995.7000;0.5364;1.4909;
996.0000;0.5356;1.4957;
996.3000;0.5372;1.4957;
996.6000;0.5348;1.4836;
996.9000;0.5364;1.4787;
997.2000;0.5356;1.4787;
997.5000;0.5364;1.4812;
997.8000;0.5381;1.4787;
998.1000;0.5364;1.4787;
998.4000;0.5340;1.4739;
998.7000;0.5348;1.4787;
999.0000;0.5372;1.4812;
999.3000;0.5381;1.4836;
999.6000;0.5372;1.4739;
999.9000;0.5364;1.4690;
1000.2000;0.5364;1.4714;
1000.5000;0.5381;1.4714;
1000.8000;0.5389;1.4763;
1001.1000;0.5356;1.4763;
1001.4000;0.5356;1.4836;
1001.7000;0.5381;1.4860;
1002.0000;0.5348;1.4860;
1002.3000;0.5381;1.4957;
1002.6000;0.5356;1.4933;
1002.9000;0.5364;1.4982;
1003.2000;0.5364;1.4933;
1003.5000;0.5324;1.4812;
1003.8000;0.5348;1.4884;
1004.1000;0.5397;1.5079;
1004.4000;0.5381;1.5030;
1004.7000;0.5372;1.5054;
1005.0000;0.5356;1.5054;
1005.3000;0.5356;1.5103;
1005.6000;0.5381;1.5079;
1005.9000;0.5356;1.4982;
1006.2000;0.5356;1.5054;
1006.5000;0.5356;1.5006;
1006.8000;0.5381;1.5079;
1007.1000;0.5364;1.5079;
1007.4000;0.5397;1.5127;
1007.7000;0.5356;1.5030;
1008.0000;0.5356;1.5054;
1008.3000;0.5364;1.5054;
1008.6000;0.5364;1.5030;
1008.9000;0.5372;1.5079;
1009.2000;0.5348;1.4957;
1009.5000;0.5348;1.4933;
1009.8000;0.5348;1.5030;
1010.1000;0.5356;1.5103;
1010.4000;0.5372;1.5127;
1010.7000;0.5348;1.5030;
1011.0000;0.5389;1.5152;
1011.3000;0.5348;1.5079;
1011.6000;0.5356;1.5054;
1011.9000;0.5405;1.5200;
1012.2000;0.5413;1.5152;
1012.5000;0.5348;1.5006;
1012.8000;0.5364;1.5079;
1013.1000;0.5405;1.5127;
1013.4000;0.5364;1.5079;
1013.7000;0.5397;1.5200;
1014.0000;0.5348;1.5152;
1014.3000;0.5332;1.5079;
1014.6000;0.5364;1.5127;
1014.9000;0.5364;1.5054;
1015.2000;0.5315;1.4909;
1015.5000;0.5356;1.5079;
1015.8000;0.5364;1.5103;
1016.1000;0.5332;1.4982;
1016.4000;0.5364;1.5103;
1016.7000;0.5364;1.5079;
1017.0000;0.5372;1.5127;
1017.3000;0.5348;1.5079;
1017.6000;0.5348;1.5103;
1017.9000;0.5356;1.5176;
1018.2000;0.5381;1.5152;
1018.5000;0.5348;1.5079;
1018.8000;0.5332;1.5079;
1019.1000;0.5348;1.5054;
1019.4000;0.5356;1.5079;
1019.7000;0.5348;1.4982;
1020.0000;0.5438;1.5273;
1020.3000;0.5364;1.5054;
1020.6000;0.5356;1.4982;
1020.9000;0.5364;1.5103;
1021.2000;0.5267;1.4957;
1021.5000;0.5340;1.5054;
1021.8000;0.5364;1.5054;
1022.1000;0.5372;1.5079;
1022.4000;0.5438;1.5224;
1022.7000;0.5364;1.5054;
1023.0000;0.5356;1.4982;
1023.3000;0.5381;1.4982;
1023.6000;0.5356;1.4957;
1023.9000;0.5356;1.4957;
1024.2000;0.5348;1.4909;
1024.5000;0.5299;1.4739;
1024.8000;0.5364;1.4836;
1025.1000;0.5356;1.4884;
1025.4000;0.5364;1.4909;
1025.7000;0.5364;1.4933;
1026.0000;0.5364;1.5006;
1026.3000;0.5356;1.5006;
1026.6000;0.5348;1.5054;
1026.9000;0.5364;1.5103;
1027.2000;0.5340;1.5079;
1027.5000;0.5372;1.5103;
1027.8000;0.5389;1.5054;
1028.1000;0.5356;1.5006;
1028.4000;0.5364;1.5006;
1028.7000;0.5356;1.5006;
1029.0000;0.5413;1.5030;
1029.3000;0.5356;1.4957;
1029.6000;0.5405;1.5054;
1029.9000;0.5348;1.5006;
1030.2000;0.5356;1.5054;
1030.5000;0.5364;1.5079;
1030.8000;0.5364;1.5103;
1031.1000;0.5364;1.5054;
1031.4000;0.5348;1.5054;
1031.7000;0.5356;1.5054;
1032.0000;0.5348;1.4957;
1032.3000;0.5340;1.4884;
1032.6000;0.5348;1.4933;
1032.9000;0.5356;1.5030;
1033.2000;0.5356;1.4957;
1033.5000;0.5332;1.4957;
1033.8000;0.5364;1.5006;
1034.1000;0.5372;1.4982;
1034.4000;0.5381;1.5054;
1034.7000;0.5389;1.5054;
1035.0000;0.5348;1.5006;
1035.3000;0.5348;1.4933;
1035.6000;0.5340;1.4860;
1035.9000;0.5446;1.5127;
1036.2000;0.5381;1.4957;
1036.5000;0.5364;1.5006;
1036.8000;0.5356;1.5006;
1037.1000;0.5348;1.4957;
1037.4000;0.5307;1.4909;
1037.7000;0.5381;1.5152;
1038.0000;0.5381;1.5103;
1038.3000;0.5348;1.5054;
1038.6000;0.5348;1.4982;
1038.9000;0.5348;1.4933;
1039.2000;0.5348;1.4836;
1039.5000;0.5348;1.4860;
1039.8000;0.5348;1.4860;
1040.1000;0.5381;1.4909;
1040.4000;0.5372;1.4909;
1040.7000;0.5356;1.4933;
1041.0000;0.5340;1.4884;
1041.3000;0.5372;1.4909;
1041.6000;0.5348;1.4763;
1041.9000;0.5381;1.4884;
1042.2000;0.5356;1.4763;
1042.5000;0.5356;1.4884;
1042.8000;0.5348;1.4909;
1043.1000;0.5372;1.5030;
1043.4000;0.5340;1.5030;
1043.7000;0.5356;1.5030;
1044.0000;0.5421;1.5176;
1044.3000;0.5381;1.5103;
1044.6000;0.5356;1.5030;
1044.9000;0.5348;1.4957;
1045.2000;0.5332;1.5079;
1045.5000;0.5364;1.5152;
1045.8000;0.5348;1.4982;
1046.1000;0.5364;1.5030;
1046.4000;0.5372;1.5054;
1046.7000;0.5364;1.5006;
1047.0000;0.5356;1.5054;
1047.3000;0.5364;1.5127;
1047.6000;0.5372;1.5273;
1047.9000;0.5372;1.5224;
1048.2000;0.5356;1.5103;
1048.5000;0.5364;1.5127;
1048.8000;0.5372;1.5152;
1049.1000;0.5364;1.5127;
1049.4000;0.5356;1.5127;
1049.7000;0.5356;1.5249;
1050.0000;0.5332;1.5224;
1050.3000;0.5356;1.5297;
1050.6000;0.5372;1.5297;
1050.9000;0.5348;1.5176;
1051.2000;0.5364;1.5152;
1051.5000;0.5356;1.5152;
1051.8000;0.5307;1.5006;
1052.1000;0.5405;1.5224;
1052.4000;0.5356;1.5103;
1052.7000;0.5356;1.5103;
1053.0000;0.5356;1.5152;
1053.3000;0.5429;1.5273;
1053.6000;0.5299;1.4909;
1053.9000;0.5348;1.4957;
1054.2000;0.5381;1.4957;
1054.5000;0.5364;1.4982;
1054.8000;0.5348;1.4957;
1055.1000;0.5356;1.5006;
1055.4000;0.5340;1.4909;
1055.7000;0.5364;1.5030;
1056.0000;0.5324;1.4909;
1056.3000;0.5348;1.4982;
1056.6000;0.5356;1.5006;
1056.9000;0.5340;1.4957;
1057.2000;0.5364;1.5054;
1057.5000;0.5332;1.4957;
1057.8000;0.5348;1.5006;
1058.1000;0.5348;1.4982;
1058.4000;0.5356;1.5054;
1058.7000;0.5356;1.5127;
1059.0000;0.5340;1.5152;
1059.3000;0.5348;1.5176;
1059.6000;0.5356;1.5152;
1059.9000;0.5348;1.5079;
1060.2000;0.5397;1.5176;
1060.5000;0.5364;1.5103;
1060.8000;0.5348;1.5152;
1061.1000;0.5364;1.5200;
1061.4000;0.5307;1.5054;
1061.7000;0.5364;1.5127;
1062.0000;0.5356;1.5030;
1062.3000;0.5364;1.5079;
1062.6000;0.5348;1.5054;
1062.9000;0.5356;1.5030;
1063.2000;0.5348;1.4933;
1063.5000;0.5381;1.5006;
1063.8000;0.5364;1.4957;
1064.1000;0.5356;1.4957;
1064.4000;0.5364;1.4982;
1064.7000;0.5381;1.5030;
1065.0000;0.5356;1.4957;
1065.3000;0.5348;1.4957;
1065.6000;0.5348;1.5006;
1065.9000;0.5364;1.5079;
1066.2000;0.5348;1.5054;
1066.5000;0.5348;1.5054;
1066.8000;0.5356;1.5006;
1067.1000;0.5356;1.5103;
1067.4000;0.5348;1.5152;
1067.7000;0.5356;1.5103;
1068.0000;0.5315;1.5054;
1068.3000;0.5340;1.5079;
1068.6000;0.5356;1.5127;
1068.9000;0.5299;1.5079;
1069.2000;0.5348;1.5200;
1069.5000;0.5364;1.5200;
1069.8000;0.5307;1.5079;
1070.1000;0.5364;1.5127;
1070.4000;0.5348;1.5176;
1070.7000;0.5348;1.5152;
1071.0000;0.5356;1.5103;
1071.3000;0.5356;1.4982;
1071.6000;0.5340;1.4860;
1071.9000;0.5364;1.5030;
1072.2000;0.5356;1.4982;
1072.5000;0.5348;1.4909;
1072.8000;0.5340;1.4884;
1073.1000;0.5332;1.4884;
1073.4000;0.5356;1.4957;
1073.7000;0.5364;1.5006;
1074.0000;0.5348;1.4884;
1074.3000;0.5364;1.4884;
1074.6000;0.5356;1.4957;
1074.9000;0.5372;1.4982;
1075.2000;0.5356;1.4957;
1075.5000;0.5446;1.5176;
1075.8000;0.5372;1.4957;
1076.1000;0.5364;1.4957;
1076.4000;0.5356;1.4884;
1076.7000;0.5356;1.4884;
1077.0000;0.5356;1.4836;
1077.3000;0.5446;1.5079;
1077.6000;0.5348;1.4836;
1077.9000;0.5348;1.4884;
1078.2000;0.5348;1.4982;
1078.5000;0.5348;1.4982;
1078.8000;0.5356;1.4982;
1079.1000;0.5332;1.4957;
1079.4000;0.5332;1.4933;
1079.7000;0.5348;1.4982;
1080.0000;0.5340;1.4982;
1080.3000;0.5348;1.4933;
1080.6000;0.5372;1.5006;
1080.9000;0.5315;1.4957;
1081.2000;0.5340;1.5054;
1081.5000;0.5348;1.4957;
1081.8000;0.5348;1.4957;
1082.1000;0.5315;1.4982;
1082.4000;0.5397;1.5200;
1082.7000;0.5356;1.5030;
1083.0000;0.5348;1.4884;
1083.3000;0.5315;1.4812;
1083.6000;0.5372;1.5030;
1083.9000;0.5429;1.5224;
1084.2000;0.5356;1.5079;
1084.5000;0.5356;1.5127;
1084.8000;0.5364;1.5176;
1085.1000;0.5372;1.5127;
1085.4000;0.5348;1.5054;
1085.7000;0.5348;1.5030;
1086.0000;0.5315;1.4982;
1086.3000;0.5372;1.5054;
1086.6000;0.5356;1.5054;
1086.9000;0.5364;1.4982;
1087.2000;0.5340;1.4957;
1087.5000;0.5364;1.5054;
1087.8000;0.5340;1.4957;
1088.1000;0.5340;1.4884;
1088.4000;0.5324;1.4860;
1088.7000;0.5348;1.4884;
1089.0000;0.5364;1.4957;
1089.3000;0.5348;1.4957;
1089.6000;0.5332;1.4957;
1089.9000;0.5340;1.4957;
1090.2000;0.5356;1.4957;
1090.5000;0.5364;1.4982;
1090.8000;0.5364;1.4957;
1091.1000;0.5348;1.4982;
1091.4000;0.5356;1.5006;
1091.7000;0.5356;1.5006;
1092.0000;0.5258;1.4787;
1092.3000;0.5356;1.5054;
1092.6000;0.5356;1.5127;
1092.9000;0.5356;1.5200;
1093.2000;0.5299;1.5030;
1093.5000;0.5324;1.5176;
1093.8000;0.5372;1.5249;
1094.1000;0.5364;1.5249;
1094.4000;0.5356;1.5322;
1094.7000;0.5356;1.5200;
1095.0000;0.5348;1.5152;
1095.3000;0.5348;1.5127;
1095.6000;0.5348;1.5127;
1095.9000;0.5348;1.5103;
1096.2000;0.5340;1.5079;
1096.5000;0.5356;1.5103;
1096.8000;0.5348;1.5152;
1097.1000;0.5348;1.5079;
1097.4000;0.5356;1.5079;
1097.7000;0.5307;1.4909;
1098.0000;0.5348;1.4982;
1098.3000;0.5356;1.4982;
1098.6000;0.5324;1.4982;
1098.9000;0.5348;1.5030;
1099.2000;0.5356;1.5030;
1099.5000;0.5348;1.4909;
1099.8000;0.5332;1.4860;
1100.1000;0.5340;1.4957;
1100.4000;0.5348;1.4933;
1100.7000;0.5389;1.5006;
1101.0000;0.5364;1.4909;
1101.3000;0.5405;1.5127;
1101.6000;0.5364;1.4982;
1101.9000;0.5364;1.4909;
1102.2000;0.5356;1.4909;
1102.5000;0.5348;1.4884;
1102.8000;0.5348;1.4933;
1103.1000;0.5364;1.4957;
1103.4000;0.5332;1.4933;
1103.7000;0.5340;1.5054;
1104.0000;0.5332;1.5006;
1104.3000;0.5356;1.5054;
1104.6000;0.5348;1.5030;
1104.9000;0.5348;1.5030;
1105.2000;0.5332;1.5006;
1105.5000;0.5356;1.5030;
1105.8000;0.5356;1.4982;
1106.1000;0.5356;1.4957;
1106.4000;0.5307;1.4860;
1106.7000;0.5438;1.5249;
1107.0000;0.5372;1.5079;
1107.3000;0.5364;1.5006;
1107.6000;0.5356;1.4860;
1107.9000;0.5307;1.4836;
1108.2000;0.5389;1.5030;
1108.5000;0.5356;1.4982;
1108.8000;0.5389;1.4982;
1109.1000;0.5381;1.4957;
1109.4000;0.5356;1.5006;
1109.7000;0.5364;1.5030;
1110.0000;0.5348;1.4982;
1110.3000;0.5332;1.5054;
1110.6000;0.5348;1.5054;
1110.9000;0.5356;1.4982;
1111.2000;0.5340;1.4909;
1111.5000;0.5356;1.4957;
1111.8000;0.5364;1.5103;
1112.1000;0.5356;1.5030;
1112.4000;0.5348;1.4982;
1112.7000;0.5364;1.5030;
1113.0000;0.5381;1.5054;
1113.3000;0.5356;1.5006;
1113.6000;0.5348;1.5006;
1113.9000;0.5324;1.4909;
1114.2000;0.5340;1.4909;
1114.5000;0.5397;1.5006;
1114.8000;0.5356;1.5030;
1115.1000;0.5324;1.4982;
1115.4000;0.5348;1.5006;
1115.7000;0.5348;1.5006;
1116.0000;0.5315;1.4933;
1116.3000;0.5348;1.4982;
1116.6000;0.5283;1.4812;
1116.9000;0.5348;1.4933;
1117.2000;0.5356;1.4860;
1117.5000;0.5372;1.4812;
1117.8000;0.5332;1.4763;
1118.1000;0.5356;1.4860;
1118.4000;0.5340;1.4860;
1118.7000;0.5372;1.4933;
1119.0000;0.5348;1.4909;
1119.3000;0.5381;1.4982;
1119.6000;0.5356;1.4933;
1119.9000;0.5364;1.4957;
1120.2000;0.5356;1.4884;
1120.5000;0.5356;1.4860;
1120.8000;0.5348;1.4909;
1121.1000;0.5381;1.5054;
1121.4000;0.5348;1.4860;
1121.7000;0.5364;1.4909;
1122.0000;0.5348;1.4884;
1122.3000;0.5356;1.4884;
1122.6000;0.5381;1.4933;
1122.9000;0.5356;1.4860;
1123.2000;0.5356;1.4812;
1123.5000;0.5364;1.4763;
1123.8000;0.5340;1.4690;
1124.1000;0.5356;1.4714;
1124.4000;0.5340;1.4642;
1124.7000;0.5348;1.4617;
1125.0000;0.5340;1.4617;
1125.3000;0.5332;1.4690;
1125.6000;0.5340;1.4739;
1125.9000;0.5364;1.4812;
1126.2000;0.5340;1.4836;
1126.5000;0.5348;1.4860;
1126.8000;0.5364;1.4860;
1127.1000;0.5348;1.4812;
1127.4000;0.5356;1.4860;
1127.7000;0.5348;1.4836;
1128.0000;0.5340;1.4884;
1128.3000;0.5356;1.4836;
1128.6000;0.5348;1.4763;
1128.9000;0.5348;1.4666;
1129.2000;0.5348;1.4763;
1129.5000;0.5332;1.4690;
1129.8000;0.5348;1.4763;
1130.1000;0.5340;1.4787;
1130.4000;0.5340;1.4787;
1130.7000;0.5299;1.4787;
1131.0000;0.5315;1.4836;
1131.3000;0.5307;1.4763;
1131.6000;0.5356;1.4812;
1131.9000;0.5340;1.4860;
1132.2000;0.5324;1.4860;
1132.5000;0.5413;1.5079;
1132.8000;0.5364;1.4884;
1133.1000;0.5356;1.4812;
1133.4000;0.5364;1.4812;
1133.7000;0.5283;1.4593;
1134.0000;0.5332;1.4642;
1134.3000;0.5348;1.4714;
1134.6000;0.5348;1.4860;
1134.9000;0.5307;1.4909;
1135.2000;0.5340;1.4787;
1135.5000;0.5381;1.4812;
1135.8000;0.5332;1.4714;
1136.1000;0.5356;1.4787;
1136.4000;0.5348;1.4714;
1136.7000;0.5340;1.4690;
1137.0000;0.5381;1.4763;
1137.3000;0.5348;1.4714;
1137.6000;0.5364;1.4860;
1137.9000;0.5348;1.4836;
1138.2000;0.5348;1.4860;
1138.5000;0.5364;1.4812;
1138.8000;0.5356;1.4812;
1139.1000;0.5364;1.4787;
1139.4000;0.5389;1.4884;
1139.7000;0.5348;1.4836;
1140.0000;0.5315;1.4714;
1140.3000;0.5364;1.4860;
1140.6000;0.5324;1.4836;
1140.9000;0.5340;1.4763;
1141.2000;0.5332;1.4690;
1141.5000;0.5348;1.4714;
1141.8000;0.5348;1.4739;
1142.1000;0.5356;1.4787;
1142.4000;0.5340;1.4739;
1142.7000;0.5340;1.4739;
1143.0000;0.5348;1.4763;
1143.3000;0.5348;1.4739;
1143.6000;0.5356;1.4787;
1143.9000;0.5348;1.4763;
1144.2000;0.5348;1.4860;
1144.5000;0.5348;1.4884;
1144.8000;0.5356;1.4860;
1145.1000;0.5324;1.4787;
1145.4000;0.5364;1.4909;
1145.7000;0.5356;1.4860;
1146.0000;0.5332;1.4812;
1146.3000;0.5332;1.4739;
1146.6000;0.5356;1.4884;
1146.9000;0.5348;1.4763;
1147.2000;0.5356;1.4714;
1147.5000;0.5364;1.4812;
1147.8000;0.5381;1.4763;
1148.1000;0.5364;1.4763;
1148.4000;0.5348;1.4739;
1148.7000;0.5340;1.4787;
1149.0000;0.5340;1.4739;
1149.3000;0.5356;1.4836;
1149.6000;0.5348;1.4860;
1149.9000;0.5364;1.4787;
1150.2000;0.5372;1.4836;
1150.5000;0.5364;1.4836;
1150.8000;0.5291;1.4642;
1151.1000;0.5340;1.4763;
1151.4000;0.5324;1.4836;
1151.7000;0.5242;1.4690;
1152.0000;0.5307;1.4860;
1152.3000;0.5348;1.4884;
1152.6000;0.5405;1.5006;
1152.9000;0.5356;1.4982;
1153.2000;0.5324;1.4836;
1153.5000;0.5332;1.4787;
1153.8000;0.5364;1.4812;
1154.1000;0.5372;1.4884;
1154.4000;0.5356;1.4812;
1154.7000;0.5364;1.4884;
1155.0000;0.5348;1.4884;
1155.3000;0.5364;1.4909;
1155.6000;0.5348;1.4909;
1155.9000;0.5340;1.4884;
1156.2000;0.5340;1.4763;
1156.5000;0.5348;1.4787;
1156.8000;0.5356;1.4763;
1157.1000;0.5348;1.4763;
1157.4000;0.5340;1.4763;
1157.7000;0.5324;1.4642;
1158.0000;0.5348;1.4787;
1158.3000;0.5348;1.4787;
1158.6000;0.5340;1.4739;
1158.9000;0.5340;1.4836;
1159.2000;0.5340;1.4860;
1159.5000;0.5291;1.4812;
1159.8000;0.5348;1.4860;
1160.1000;0.5348;1.4787;
1160.4000;0.5340;1.4763;
1160.7000;0.5364;1.4763;
1161.0000;0.5348;1.4714;
1161.3000;0.5332;1.4666;
1161.6000;0.5332;1.4690;
1161.9000;0.5340;1.4690;
1162.2000;0.5348;1.4714;
1162.5000;0.5348;1.4714;
1162.8000;0.5340;1.4763;
1163.1000;0.5356;1.4836;
1163.4000;0.5356;1.4860;
1163.7000;0.5307;1.4763;
1164.0000;0.5315;1.4714;
1164.3000;0.5356;1.4860;
1164.6000;0.5348;1.4957;
1164.9000;0.5332;1.4884;
1165.2000;0.5332;1.4836;
1165.5000;0.5348;1.4714;
1165.8000;0.5348;1.4739;
1166.1000;0.5340;1.4642;
1166.4000;0.5340;1.4593;
1166.7000;0.5332;1.4617;
1167.0000;0.5348;1.4763;
1167.3000;0.5348;1.4690;
1167.6000;0.5332;1.4642;
1167.9000;0.5340;1.4666;
1168.2000;0.5356;1.4690;
1168.5000;0.5348;1.4666;
1168.8000;0.5356;1.4593;
1169.1000;0.5364;1.4617;
1169.4000;0.5356;1.4617;
1169.7000;0.5381;1.4739;
1170.0000;0.5348;1.4642;
1170.3000;0.5356;1.4545;
1170.6000;0.5356;1.4569;
1170.9000;0.5348;1.4520;
1171.2000;0.5364;1.4545;
1171.5000;0.5348;1.4545;
1171.8000;0.5405;1.4739;
1172.1000;0.5340;1.4666;
1172.4000;0.5364;1.4690;
1172.7000;0.5340;1.4666;
1173.0000;0.5348;1.4714;
1173.3000;0.5356;1.4836;
1173.6000;0.5332;1.4836;
1173.9000;0.5356;1.4909;
1174.2000;0.5348;1.4739;
1174.5000;0.5356;1.4763;
1174.8000;0.5332;1.4690;
1175.1000;0.5356;1.4690;
1175.4000;0.5332;1.4690;
1175.7000;0.5397;1.4836;
1176.0000;0.5389;1.4836;
1176.3000;0.5340;1.4666;
1176.6000;0.5324;1.4593;
1176.9000;0.5332;1.4569;
1177.2000;0.5348;1.4642;
1177.5000;0.5324;1.4545;
1177.8000;0.5340;1.4569;
1178.1000;0.5364;1.4666;
1178.4000;0.5348;1.4714;
1178.7000;0.5356;1.4812;
1179.0000;0.5340;1.4739;
1179.3000;0.5372;1.4933;
1179.6000;0.5340;1.4812;
1179.9000;0.5340;1.4836;
1180.2000;0.5348;1.4714;
1180.5000;0.5332;1.4617;
1180.8000;0.5340;1.4666;
1181.1000;0.5348;1.4763;
1181.4000;0.5348;1.4690;
1181.7000;0.5324;1.4642;
1182.0000;0.5446;1.4933;
1182.3000;0.5315;1.4690;
1182.6000;0.5348;1.4739;
1182.9000;0.5340;1.4714;
1183.2000;0.5364;1.4836;
1183.5000;0.5364;1.4812;
1183.8000;0.5372;1.4884;
1184.1000;0.5324;1.4714;
1184.4000;0.5324;1.4642;
1184.7000;0.5356;1.4690;
1185.0000;0.5356;1.4690;
1185.3000;0.5340;1.4690;
1185.6000;0.5348;1.4763;
1185.9000;0.5348;1.4739;
1186.2000;0.5348;1.4787;
1186.5000;0.5364;1.4763;
1186.8000;0.5348;1.4690;
1187.1000;0.5429;1.4957;
1187.4000;0.5332;1.4763;
1187.7000;0.5348;1.4812;
1188.0000;0.5348;1.4763;
1188.3000;0.5332;1.4884;
1188.6000;0.5340;1.4860;
1188.9000;0.5332;1.4884;
1189.2000;0.5348;1.4860;
1189.5000;0.5340;1.4884;
1189.8000;0.5405;1.5079;
1190.1000;0.5283;1.4836;
1190.4000;0.5332;1.4957;
1190.7000;0.5348;1.5006;
1191.0000;0.5340;1.4982;
1191.3000;0.5348;1.4909;
1191.6000;0.5348;1.4836;
1191.9000;0.5340;1.4787;
1192.2000;0.5332;1.4642;
1192.5000;0.5340;1.4593;
1192.8000;0.5332;1.4617;
1193.1000;0.5267;1.4447;
1193.4000;0.5307;1.4617;
1193.7000;0.5340;1.4690;
1194.0000;0.5332;1.4666;
1194.3000;0.5332;1.4690;
1194.6000;0.5324;1.4642;
1194.9000;0.5340;1.4666;
1195.2000;0.5364;1.4739;
1195.5000;0.5348;1.4739;
1195.8000;0.5340;1.4739;
1196.1000;0.5332;1.4593;
1196.4000;0.5340;1.4617;
1196.7000;0.5348;1.4666;
1197.0000;0.5340;1.4714;
1197.3000;0.5332;1.4714;
1197.6000;0.5356;1.4836;
1197.9000;0.5348;1.4884;
1198.2000;0.5348;1.4812;
1198.5000;0.5340;1.4739;
1198.8000;0.5405;1.4909;
1199.1000;0.5356;1.4812;
1199.4000;0.5348;1.4714;
1199.7000;0.5340;1.4666;
1200.0000;0.5348;1.4739;
1200.3000;0.5348;1.4836;
1200.6000;0.5340;1.4836;
1200.9000;0.5405;1.5054;
1201.2000;0.5324;1.4909;
1201.5000;0.5340;1.4957;
1201.8000;0.5356;1.5079;
1202.1000;0.5299;1.4933;
1202.4000;0.5340;1.5054;
1202.7000;0.5315;1.5006;
1203.0000;0.5340;1.5054;
1203.3000;0.5315;1.4957;
1203.6000;0.5332;1.4933;
1203.9000;0.5324;1.4884;
1204.2000;0.5348;1.4982;
1204.5000;0.5332;1.5030;
1204.8000;0.5332;1.5079;
1205.1000;0.5315;1.5030;
1205.4000;0.5348;1.5127;
1205.7000;0.5348;1.5152;
1206.0000;0.5340;1.5176;
1206.3000;0.5348;1.5200;
1206.6000;0.5364;1.5224;
1206.9000;0.5291;1.5006;
1207.2000;0.5356;1.5176;
1207.5000;0.5356;1.5224;
1207.8000;0.5340;1.5200;
1208.1000;0.5348;1.5176;
1208.4000;0.5340;1.5152;
1208.7000;0.5324;1.5030;
1209.0000;0.5324;1.5054;
1209.3000;0.5340;1.5030;
1209.6000;0.5364;1.5030;
1209.9000;0.5332;1.4933;
1210.2000;0.5405;1.5152;
1210.5000;0.5356;1.5006;
1210.8000;0.5372;1.5006;
1211.1000;0.5332;1.4836;
1211.4000;0.5348;1.4836;
1211.7000;0.5381;1.5006;
1212.0000;0.5356;1.4884;
1212.3000;0.5356;1.4787;
1212.6000;0.5356;1.4763;
1212.9000;0.5340;1.4812;
1213.2000;0.5348;1.4836;
1213.5000;0.5340;1.4812;
1213.8000;0.5381;1.4957;
1214.1000;0.5315;1.4812;
1214.4000;0.5340;1.4909;
1214.7000;0.5348;1.4860;
1215.0000;0.5315;1.4812;
1215.3000;0.5340;1.4812;
1215.6000;0.5348;1.4763;
1215.9000;0.5348;1.4812;
1216.2000;0.5348;1.4836;
1216.5000;0.5332;1.4836;
1216.8000;0.5348;1.4909;
1217.1000;0.5324;1.4860;
1217.4000;0.5340;1.4957;
1217.7000;0.5340;1.4982;
1218.0000;0.5332;1.5054;
1218.3000;0.5348;1.5127;
1218.6000;0.5348;1.5176;
1218.9000;0.5340;1.5152;
1219.2000;0.5348;1.5152;
1219.5000;0.5381;1.5249;
1219.8000;0.5356;1.5176;
1220.1000;0.5332;1.5103;
1220.4000;0.5348;1.5079;
1220.7000;0.5332;1.5006;
1221.0000;0.5332;1.5030;
1221.3000;0.5324;1.5030;
1221.6000;0.5340;1.4982;
1221.9000;0.5332;1.4982;
1222.2000;0.5340;1.5006;
1222.5000;0.5348;1.4982;
1222.8000;0.5438;1.5200;
1223.1000;0.5291;1.4836;
1223.4000;0.5348;1.5030;
1223.7000;0.5356;1.5079;
1224.0000;0.5340;1.5152;
1224.3000;0.5348;1.5200;
1224.6000;0.5299;1.5054;
1224.9000;0.5340;1.5200;
1225.2000;0.5348;1.5200;
1225.5000;0.5324;1.5176;
1225.8000;0.5340;1.5200;
1226.1000;0.5324;1.5176;
1226.4000;0.5291;1.5200;
1226.7000;0.5332;1.5249;
1227.0000;0.5332;1.5249;
1227.3000;0.5332;1.5273;
1227.6000;0.5340;1.5249;
1227.9000;0.5340;1.5200;
1228.2000;0.5324;1.5152;
1228.5000;0.5332;1.5224;
1228.8000;0.5315;1.5127;
1229.1000;0.5332;1.5030;
1229.4000;0.5332;1.5054;
1229.7000;0.5324;1.5054;
1230.0000;0.5356;1.5224;
1230.3000;0.5332;1.5127;
1230.6000;0.5340;1.5127;
1230.9000;0.5356;1.5224;
1231.2000;0.5348;1.5127;
1231.5000;0.5348;1.5054;
1231.8000;0.5307;1.4982;
1232.1000;0.5315;1.5006;
1232.4000;0.5348;1.5030;
1232.7000;0.5356;1.5103;
1233.0000;0.5291;1.5006;
1233.3000;0.5348;1.5200;
1233.6000;0.5356;1.5249;
1233.9000;0.5340;1.5176;
1234.2000;0.5356;1.5152;
1234.5000;0.5332;1.5030;
1234.8000;0.5332;1.5006;
1235.1000;0.5348;1.5030;
1235.4000;0.5332;1.5006;
1235.7000;0.5332;1.5030;
1236.0000;0.5332;1.5079;
1236.3000;0.5340;1.5054;
1236.6000;0.5340;1.4982;
1236.9000;0.5324;1.5079;
1237.2000;0.5324;1.5079;
1237.5000;0.5332;1.5103;
1237.8000;0.5340;1.5200;
1238.1000;0.5324;1.5200;
1238.4000;0.5348;1.5176;
1238.7000;0.5332;1.5200;
1239.0000;0.5324;1.5176;
1239.3000;0.5340;1.5103;
1239.6000;0.5307;1.4982;
1239.9000;0.5315;1.5030;
1240.2000;0.5307;1.5030;
1240.5000;0.5348;1.5200;
1240.8000;0.5340;1.5224;
1241.1000;0.5356;1.5346;
1241.4000;0.5348;1.5297;
1241.7000;0.5340;1.5200;
1242.0000;0.5356;1.5224;
1242.3000;0.5315;1.5127;
1242.6000;0.5372;1.5273;
1242.9000;0.5332;1.5224;
1243.2000;0.5340;1.5224;
1243.5000;0.5324;1.5103;
1243.8000;0.5324;1.5103;
1244.1000;0.5324;1.5054;
1244.4000;0.5332;1.5030;
1244.7000;0.5283;1.4812;
1245.0000;0.5324;1.4909;
1245.3000;0.5275;1.4787;
1245.6000;0.5340;1.4957;
1245.9000;0.5324;1.4909;
1246.2000;0.5332;1.4909;
1246.5000;0.5340;1.4933;
1246.8000;0.5421;1.5079;
1247.1000;0.5283;1.4714;
1247.4000;0.5324;1.4933;
1247.7000;0.5324;1.4982;
1248.0000;0.5332;1.4957;
1248.3000;0.5332;1.4933;
1248.6000;0.5397;1.5152;
1248.9000;0.5324;1.5006;
1249.2000;0.5340;1.4860;
1249.5000;0.5332;1.4812;
1249.8000;0.5381;1.4884;
1250.1000;0.5299;1.4690;
1250.4000;0.5397;1.4933;
1250.7000;0.5340;1.4763;
1251.0000;0.5340;1.4714;
1251.3000;0.5324;1.4787;
1251.6000;0.5340;1.4957;
1251.9000;0.5348;1.5030;
1252.2000;0.5340;1.5079;
1252.5000;0.5332;1.5030;
1252.8000;0.5348;1.5006;
1253.1000;0.5332;1.4982;
1253.4000;0.5340;1.4933;
1253.7000;0.5315;1.4787;
1254.0000;0.5348;1.4836;
1254.3000;0.5324;1.4836;
1254.6000;0.5340;1.4812;
1254.9000;0.5340;1.4909;
1255.2000;0.5324;1.4884;
1255.5000;0.5348;1.5054;
1255.8000;0.5340;1.5030;
1256.1000;0.5324;1.4933;
1256.4000;0.5340;1.4982;
1256.7000;0.5324;1.5006;
1257.0000;0.5348;1.5030;
1257.3000;0.5332;1.5030;
1257.6000;0.5340;1.5030;
1257.9000;0.5340;1.5030;
1258.2000;0.5291;1.4982;
1258.5000;0.5356;1.5079;
1258.8000;0.5332;1.5006;
1259.1000;0.5332;1.4884;
1259.4000;0.5324;1.4884;
1259.7000;0.5348;1.4884;
1260.0000;0.5381;1.5030;
1260.3000;0.5356;1.4982;
1260.6000;0.5348;1.4909;
1260.9000;0.5356;1.4933;
1261.2000;0.5332;1.4933;
1261.5000;0.5348;1.4884;
1261.8000;0.5307;1.4909;
1262.1000;0.5348;1.5006;
1262.4000;0.5348;1.4982;
1262.7000;0.5340;1.4982;
1263.0000;0.5348;1.4982;
1263.3000;0.5348;1.5006;
1263.6000;0.5340;1.5030;
1263.9000;0.5340;1.5006;
1264.2000;0.5348;1.5006;
1264.5000;0.5348;1.5006;
1264.8000;0.5348;1.5054;
1265.1000;0.5340;1.5030;
1265.4000;0.5332;1.5030;
1265.7000;0.5324;1.5079;
1266.0000;0.5348;1.5127;
1266.3000;0.5267;1.4836;
1266.6000;0.5413;1.5200;
1266.9000;0.5324;1.4982;
1267.2000;0.5348;1.4982;
1267.5000;0.5340;1.4933;
1267.8000;0.5340;1.4957;
1268.1000;0.5332;1.4909;
1268.4000;0.5356;1.4982;
1268.7000;0.5324;1.4909;
1269.0000;0.5348;1.4982;
1269.3000;0.5324;1.4933;
1269.6000;0.5348;1.5006;
1269.9000;0.5381;1.5006;
1270.2000;0.5332;1.4836;
1270.5000;0.5332;1.4812;
1270.8000;0.5299;1.4714;
1271.1000;0.5332;1.4884;
1271.4000;0.5315;1.4836;
1271.7000;0.5332;1.4884;
1272.0000;0.5340;1.4909;
1272.3000;0.5332;1.4909;
1272.6000;0.5356;1.4933;
1272.9000;0.5332;1.4787;
1273.2000;0.5340;1.4884;
1273.5000;0.5340;1.4884;
1273.8000;0.5332;1.4812;
1274.1000;0.5332;1.4763;
1274.4000;0.5324;1.4690;
1274.7000;0.5332;1.4763;
1275.0000;0.5340;1.4763;
1275.3000;0.5332;1.4714;
1275.6000;0.5340;1.4666;
1275.9000;0.5348;1.4642;
1276.2000;0.5340;1.4642;
1276.5000;0.5332;1.4593;
1276.8000;0.5348;1.4666;
1277.1000;0.5315;1.4714;
1277.4000;0.5340;1.4860;
1277.7000;0.5324;1.4933;
1278.0000;0.5315;1.4860;
1278.3000;0.5348;1.4933;
1278.6000;0.5332;1.4933;
1278.9000;0.5340;1.4957;
1279.2000;0.5364;1.4982;
1279.5000;0.5348;1.4884;
1279.8000;0.5364;1.4933;
1280.1000;0.5267;1.4617;
1280.4000;0.5372;1.4763;
1280.7000;0.5340;1.4714;
1281.0000;0.5332;1.4666;
1281.3000;0.5332;1.4714;
1281.6000;0.5324;1.4739;
1281.9000;0.5340;1.4812;
1282.2000;0.5315;1.4714;
1282.5000;0.5332;1.4763;
1282.8000;0.5332;1.4812;
1283.1000;0.5315;1.4763;
1283.4000;0.5324;1.4763;
1283.7000;0.5340;1.4812;
1284.0000;0.5340;1.4763;
1284.3000;0.5332;1.4787;
1284.6000;0.5356;1.4884;
1284.9000;0.5364;1.4933;
1285.2000;0.5283;1.4812;
1285.5000;0.5364;1.4933;
1285.8000;0.5364;1.4957;
1286.1000;0.5332;1.5006;
1286.4000;0.5348;1.5054;
1286.7000;0.5372;1.5127;
1287.0000;0.5348;1.5054;
1287.3000;0.5348;1.5030;
1287.6000;0.5340;1.5030;
1287.9000;0.5348;1.5200;
1288.2000;0.5372;1.5224;
1288.5000;0.5348;1.5127;
1288.8000;0.5356;1.5079;
1289.1000;0.5364;1.5103;
1289.4000;0.5348;1.5030;
1289.7000;0.5307;1.4957;
1290.0000;0.5356;1.5103;
1290.3000;0.5348;1.5103;
1290.6000;0.5348;1.5127;
1290.9000;0.5348;1.5200;
1291.2000;0.5315;1.5103;
1291.5000;0.5315;1.5030;
1291.8000;0.5250;1.4787;
1292.1000;0.5315;1.4884;
1292.4000;0.5332;1.4909;
1292.7000;0.5356;1.4884;
1293.0000;0.5291;1.4714;
1293.3000;0.5340;1.4787;
1293.6000;0.5332;1.4836;
1293.9000;0.5332;1.4860;
1294.2000;0.5356;1.4860;
1294.5000;0.5348;1.4763;
1294.8000;0.5348;1.4739;
1295.1000;0.5348;1.4812;
1295.4000;0.5340;1.4909;
1295.7000;0.5332;1.4933;
1296.0000;0.5340;1.4957;
1296.3000;0.5340;1.4957;
1296.6000;0.5332;1.4957;
1296.9000;0.5324;1.4909;
1297.2000;0.5332;1.4957;
1297.5000;0.5332;1.4909;
1297.8000;0.5324;1.4860;
1298.1000;0.5340;1.4909;
1298.4000;0.5332;1.4812;
1298.7000;0.5332;1.4812;
1299.0000;0.5332;1.4787;
1299.3000;0.5348;1.4787;
1299.6000;0.5348;1.4957;
1299.9000;0.5356;1.5006;
1300.2000;0.5429;1.5224;
1300.5000;0.5364;1.5006;
1300.8000;0.5356;1.4957;
1301.1000;0.5348;1.4884;
1301.4000;0.5340;1.4957;
1301.7000;0.5348;1.4860;
1302.0000;0.5348;1.4812;
1302.3000;0.5356;1.4763;
1302.6000;0.5348;1.4812;
1302.9000;0.5340;1.4884;
1303.2000;0.5315;1.4860;
1303.5000;0.5332;1.4884;
1303.8000;0.5340;1.4909;
1304.1000;0.5324;1.4909;
1304.4000;0.5348;1.4982;
1304.7000;0.5315;1.4957;
1305.0000;0.5324;1.4957;
1305.3000;0.5340;1.4982;
1305.6000;0.5356;1.5079;
1305.9000;0.5340;1.5030;
1306.2000;0.5340;1.5103;
1306.5000;0.5348;1.5152;
1306.8000;0.5340;1.5176;
1307.1000;0.5332;1.5224;
1307.4000;0.5324;1.5273;
1307.7000;0.5324;1.5224;
1308.0000;0.5397;1.5394;
1308.3000;0.5405;1.5394;
1308.6000;0.5348;1.5176;
1308.9000;0.5340;1.5103;
1309.2000;0.5348;1.5054;
1309.5000;0.5356;1.5054;
1309.8000;0.5332;1.4982;
1310.1000;0.5381;1.5176;
1310.4000;0.5348;1.5054;
1310.7000;0.5348;1.4957;
1311.0000;0.5340;1.4933;
1311.3000;0.5348;1.4909;
1311.6000;0.5348;1.4909;
1311.9000;0.5340;1.4860;
1312.2000;0.5348;1.4860;
1312.5000;0.5324;1.4836;
1312.8000;0.5340;1.4957;
1313.1000;0.5340;1.4933;
1313.4000;0.5340;1.4909;
1313.7000;0.5332;1.4957;
1314.0000;0.5348;1.4982;
1314.3000;0.5324;1.4860;
1314.6000;0.5340;1.4957;
1314.9000;0.5364;1.5079;
1315.2000;0.5315;1.5030;
1315.5000;0.5324;1.4957;
1315.8000;0.5356;1.5030;
1316.1000;0.5299;1.4957;
1316.4000;0.5372;1.5103;
1316.7000;0.5332;1.4982;
1317.0000;0.5389;1.5152;
1317.3000;0.5307;1.4957;
1317.6000;0.5332;1.4982;
1317.9000;0.5315;1.4933;
1318.2000;0.5315;1.4836;
1318.5000;0.5315;1.4860;
1318.8000;0.5332;1.4909;
1319.1000;0.5324;1.4957;
1319.4000;0.5332;1.5006;
1319.7000;0.5307;1.4787;
1320.0000;0.5315;1.4836;
1320.3000;0.5324;1.4884;
1320.6000;0.5340;1.4836;
1320.9000;0.5348;1.4884;
1321.2000;0.5324;1.4787;
1321.5000;0.5340;1.4860;
1321.8000;0.5348;1.4957;
1322.1000;0.5332;1.4909;
1322.4000;0.5332;1.4933;
1322.7000;0.5307;1.4884;
1323.0000;0.5348;1.4957;
1323.3000;0.5340;1.4884;
1323.6000;0.5348;1.4933;
1323.9000;0.5348;1.4909;
1324.2000;0.5364;1.4909;
1324.5000;0.5348;1.4884;
1324.8000;0.5348;1.4957;
1325.1000;0.5315;1.4860;
1325.4000;0.5332;1.4884;
1325.7000;0.5348;1.4933;
1326.0000;0.5372;1.5006;
1326.3000;0.5340;1.4933;
1326.6000;0.5332;1.4933;
1326.9000;0.5348;1.5006;
1327.2000;0.5405;1.5200;
1327.5000;0.5332;1.5152;
1327.8000;0.5332;1.5127;
1328.1000;0.5348;1.5200;
1328.4000;0.5348;1.5079;
1328.7000;0.5356;1.5152;
1329.0000;0.5340;1.5103;
1329.3000;0.5324;1.5054;
1329.6000;0.5332;1.5127;
1329.9000;0.5348;1.5152;
1330.2000;0.5340;1.5152;
1330.5000;0.5340;1.5152;
1330.8000;0.5364;1.5176;
1331.1000;0.5332;1.5176;
1331.4000;0.5348;1.5127;
1331.7000;0.5340;1.5079;
1332.0000;0.5332;1.5079;
1332.3000;0.5315;1.5103;
1332.6000;0.5356;1.5176;
1332.9000;0.5324;1.5103;
1333.2000;0.5324;1.5054;
1333.5000;0.5348;1.5127;
1333.8000;0.5372;1.5200;
1334.1000;0.5324;1.5006;
1334.4000;0.5340;1.5030;
1334.7000;0.5332;1.5079;
1335.0000;0.5324;1.5030;
1335.3000;0.5364;1.5030;
1335.6000;0.5348;1.4957;
1335.9000;0.5332;1.4909;
1336.2000;0.5356;1.4884;
1336.5000;0.5340;1.4884;
1336.8000;0.5332;1.4860;
1337.1000;0.5332;1.4860;
1337.4000;0.5348;1.4909;
1337.7000;0.5340;1.4982;
1338.0000;0.5332;1.5006;
1338.3000;0.5372;1.5127;
1338.6000;0.5381;1.5152;
1338.9000;0.5348;1.5103;
1339.2000;0.5348;1.5176;
1339.5000;0.5324;1.5176;
1339.8000;0.5332;1.5200;
1340.1000;0.5332;1.5127;
1340.4000;0.5381;1.5176;
1340.7000;0.5389;1.5152;
1341.0000;0.5299;1.4957;
1341.3000;0.5307;1.5006;
1341.6000;0.5324;1.4957;
1341.9000;0.5332;1.5006;
1342.2000;0.5315;1.4909;
1342.5000;0.5340;1.4982;
1342.8000;0.5332;1.4933;
1343.1000;0.5332;1.4957;
1343.4000;0.5340;1.5054;
1343.7000;0.5356;1.5054;
1344.0000;0.5340;1.4957;
1344.3000;0.5340;1.4933;
1344.6000;0.5332;1.4933;
1344.9000;0.5324;1.4933;
1345.2000;0.5340;1.4933;
1345.5000;0.5340;1.4957;
1345.8000;0.5332;1.4982;
1346.1000;0.5332;1.4982;
1346.4000;0.5332;1.5054;
1346.7000;0.5340;1.5030;
1347.0000;0.5413;1.5273;
1347.3000;0.5340;1.5127;
1347.6000;0.5340;1.5079;
1347.9000;0.5348;1.5152;
1348.2000;0.5348;1.5079;
1348.5000;0.5397;1.5200;
1348.8000;0.5340;1.4982;
1349.1000;0.5340;1.4982;
1349.4000;0.5348;1.4933;
1349.7000;0.5340;1.4812;
1350.0000;0.5332;1.4860;
1350.3000;0.5340;1.4884;
1350.6000;0.5340;1.4957;
1350.9000;0.5324;1.4957;
1351.2000;0.5324;1.5006;
1351.5000;0.5340;1.5030;
1351.8000;0.5324;1.5054;
1352.1000;0.5356;1.5030;
1352.4000;0.5348;1.5030;
1352.7000;0.5332;1.5054;
1353.0000;0.5332;1.5079;
1353.3000;0.5340;1.5054;
1353.6000;0.5340;1.4982;
1353.9000;0.5356;1.5054;
1354.2000;0.5315;1.4933;
1354.5000;0.5340;1.5006;
1354.8000;0.5324;1.5006;
1355.1000;0.5332;1.4933;
1355.4000;0.5348;1.4957;
1355.7000;0.5340;1.4957;
1356.0000;0.5340;1.4884;
1356.3000;0.5299;1.4787;
1356.6000;0.5324;1.4909;
1356.9000;0.5405;1.5127;
1357.2000;0.5315;1.4933;
1357.5000;0.5348;1.4982;
1357.8000;0.5389;1.5079;
1358.1000;0.5348;1.4957;
1358.4000;0.5340;1.4884;
1358.7000;0.5324;1.4812;
1359.0000;0.5332;1.4860;
1359.3000;0.5340;1.5030;
1359.6000;0.5332;1.5030;
1359.9000;0.5340;1.5054;
1360.2000;0.5324;1.4957;
1360.5000;0.5332;1.4957;
1360.8000;0.5332;1.4957;
1361.1000;0.5340;1.4933;
1361.4000;0.5340;1.4909;
1361.7000;0.5348;1.4787;
1362.0000;0.5348;1.4763;
1362.3000;0.5332;1.4763;
1362.6000;0.5405;1.4957;
1362.9000;0.5291;1.4617;
1363.2000;0.5332;1.4714;
1363.5000;0.5332;1.4812;
1363.8000;0.5348;1.4763;
1364.1000;0.5381;1.4933;
1364.4000;0.5324;1.4666;
1364.7000;0.5324;1.4739;
1365.0000;0.5429;1.5006;
1365.3000;0.5332;1.4787;
1365.6000;0.5332;1.4763;
1365.9000;0.5356;1.4860;
1366.2000;0.5283;1.4739;
1366.5000;0.5315;1.4787;
1366.8000;0.5324;1.4836;
1367.1000;0.5324;1.4836;
1367.4000;0.5332;1.4860;
1367.7000;0.5332;1.4933;
1368.0000;0.5332;1.4933;
1368.3000;0.5340;1.5006;
1368.6000;0.5340;1.5103;
1368.9000;0.5348;1.5054;
1369.2000;0.5324;1.4982;
1369.5000;0.5348;1.5030;
1369.8000;0.5324;1.5030;
1370.1000;0.5332;1.5054;
1370.4000;0.5324;1.5054;
1370.7000;0.5340;1.5079;
1371.0000;0.5348;1.5079;
1371.3000;0.5324;1.4982;
1371.6000;0.5324;1.4982;
1371.9000;0.5324;1.4884;
1372.2000;0.5275;1.4666;
1372.5000;0.5332;1.4739;
1372.8000;0.5348;1.4909;
1373.1000;0.5356;1.5006;
1373.4000;0.5340;1.5030;
1373.7000;0.5348;1.4957;
1374.0000;0.5348;1.5054;
1374.3000;0.5340;1.5127;
1374.6000;0.5356;1.5079;
1374.9000;0.5356;1.5103;
1375.2000;0.5324;1.5054;
1375.5000;0.5324;1.5079;
1375.8000;0.5340;1.5103;
1376.1000;0.5332;1.5054;
1376.4000;0.5340;1.5006;
1376.7000;0.5364;1.4982;
1377.0000;0.5324;1.4909;
1377.3000;0.5324;1.4812;
1377.6000;0.5315;1.4812;
1377.9000;0.5324;1.4812;
1378.2000;0.5324;1.4884;
1378.5000;0.5340;1.5030;
1378.8000;0.5332;1.4957;
1379.1000;0.5356;1.4933;
1379.4000;0.5340;1.4909;
1379.7000;0.5332;1.4884;
1380.0000;0.5348;1.4860;
1380.3000;0.5299;1.4787;
1380.6000;0.5348;1.4884;
1380.9000;0.5299;1.4763;
1381.2000;0.5348;1.4884;
1381.5000;0.5348;1.4860;
1381.8000;0.5324;1.4836;
1382.1000;0.5348;1.4909;
1382.4000;0.5307;1.4836;
1382.7000;0.5364;1.5006;
1383.0000;0.5340;1.4957;
1383.3000;0.5332;1.5006;
1383.6000;0.5340;1.4909;
1383.9000;0.5340;1.4957;
1384.2000;0.5340;1.5030;
1384.5000;0.5356;1.5030;
1384.8000;0.5381;1.5152;
1385.1000;0.5340;1.5127;
1385.4000;0.5332;1.5079;
1385.7000;0.5356;1.5200;
1386.0000;0.5332;1.5176;
1386.3000;0.5332;1.5152;
1386.6000;0.5340;1.5079;
1386.9000;0.5340;1.5006;
1387.2000;0.5332;1.5030;
1387.5000;0.5340;1.5030;
1387.8000;0.5267;1.4787;
1388.1000;0.5324;1.4982;
1388.4000;0.5324;1.5030;
1388.7000;0.5324;1.4933;
1389.0000;0.5348;1.4933;
1389.3000;0.5364;1.4982;
1389.6000;0.5324;1.4957;
1389.9000;0.5372;1.5176;
1390.2000;0.5340;1.5176;
1390.5000;0.5348;1.5127;
1390.8000;0.5332;1.5030;
1391.1000;0.5324;1.4982;
1391.4000;0.5348;1.5030;
1391.7000;0.5348;1.5030;
1392.0000;0.5324;1.4884;
1392.3000;0.5340;1.4909;
1392.6000;0.5348;1.4909;
1392.9000;0.5324;1.4909;
1393.2000;0.5332;1.4957;
1393.5000;0.5324;1.4957;
1393.8000;0.5299;1.4933;
1394.1000;0.5332;1.4933;
1394.4000;0.5332;1.4884;
1394.7000;0.5324;1.4933;
1395.0000;0.5348;1.5103;
1395.3000;0.5356;1.5103;
1395.6000;0.5356;1.5152;
1395.9000;0.5324;1.5103;
1396.2000;0.5315;1.5030;
1396.5000;0.5324;1.4982;
1396.8000;0.5332;1.4982;
1397.1000;0.5267;1.4884;
1397.4000;0.5315;1.4909;
1397.7000;0.5315;1.4933;
1398.0000;0.5275;1.4836;
1398.3000;0.5324;1.4812;
1398.6000;0.5332;1.4884;
1398.9000;0.5324;1.4909;
1399.2000;0.5340;1.4933;
1399.5000;0.5340;1.4933;
1399.8000;0.5332;1.4884;
